MSG Master    CELL:    5.87642   5.87642  23.07461   90.0000   90.0000  120.0000   SPGR: P 63/m m c             TEMP:    449.35
  2   1280     2.52000     0.00000    -0.08690     0.00000     0.00000    0
    95    95     0     0     2
       0.00000      10.00000
     125.00000     130.00000
 2Theta	Yobs	Ycal	Yobs-Ycal	Backg	Posr	(hkl)	K
      0.7700	    0.00	 1012.89	-2290.50	  871.07
      0.8700	    0.00	 1009.25	-2290.50	  867.42
      0.9700	   43.00	 1005.63	-2290.50	  863.80
      1.0700	   48.00	 1002.03	-2290.50	  860.21
      1.1700	   56.00	  998.46	-2290.50	  856.63
      1.2700	   47.00	  994.91	-2290.50	  853.08
      1.3700	   69.00	  991.38	-2290.50	  849.55
      1.4700	  105.00	  987.87	-2290.50	  846.05
      1.5700	  307.00	  984.39	-2290.50	  842.57
      1.6700	  493.00	  980.93	-2290.50	  839.11
      1.7700	  579.00	  977.49	-2290.50	  835.67
      1.8700	  628.00	  974.08	-2290.50	  832.26
      1.9700	  685.00	  970.69	-2290.50	  828.86
      2.0700	  810.00	  967.32	-2290.50	  825.49
      2.1700	  788.00	  963.97	-2290.50	  822.15
      2.2700	  783.00	  960.64	-2290.50	  818.82
      2.3700	  783.00	  957.34	-2290.50	  815.51
      2.4700	  740.00	  954.06	-2290.50	  812.23
      2.5700	  688.00	  950.79	-2290.50	  808.97
      2.6700	  627.00	  947.56	-2290.50	  805.73
      2.7700	  651.00	  944.34	-2290.50	  802.51
      2.8700	  651.00	  941.14	-2290.50	  799.32
      2.9700	  620.00	  937.97	-2290.50	  796.14
      3.0700	  611.00	  934.81	-2290.50	  792.99
      3.1700	  651.00	  931.68	-2290.50	  789.86
      3.2700	  750.00	  928.57	-2290.50	  786.75
      3.3700	  901.00	  925.48	-2290.50	  783.65
      3.4700	 1076.00	  922.41	-2290.50	  780.59
      3.5700	 1230.00	  919.36	-2290.50	  777.54
      3.6700	 1349.00	  916.33	-2290.50	  774.51
      3.7700	 1418.00	  913.32	-2290.50	  771.50
      3.8700	 1542.00	  910.34	-2290.50	  768.51
      3.9700	 1518.00	  907.37	-2290.50	  765.55
      4.0700	 1669.00	  904.42	-2290.50	  762.60
      4.1700	 1645.00	  901.50	-2290.50	  759.67
      4.2700	 1710.00	  898.59	-2290.50	  756.77
      4.3700	 1690.00	  895.70	-2290.50	  753.88
      4.4700	 1590.00	  892.84	-2290.50	  751.02
      4.5700	 1602.00	  889.99	-2290.50	  748.17
      4.6700	 1501.00	  887.17	-2290.50	  745.34
      4.7700	 1430.00	  884.36	-2290.50	  742.54
      4.8700	 1385.00	  881.57	-2290.50	  739.75
      4.9700	 1401.00	  878.80	-2290.50	  736.98
      5.0700	 1322.00	  876.06	-2290.50	  734.23
      5.1700	 1331.00	  873.33	-2290.50	  731.50
      5.2700	 1244.00	  870.62	-2290.50	  728.79
      5.3700	 1295.00	  867.93	-2290.50	  726.10
      5.4700	 1231.00	  865.26	-2290.50	  723.43
      5.5700	 1255.00	  862.60	-2290.50	  720.78
      5.6700	 1127.00	  859.97	-2290.50	  718.15
      5.7700	 1165.00	  857.35	-2290.50	  715.53
      5.8700	 1159.00	  854.76	-2290.50	  712.94
      5.9700	 1097.00	  852.18	-2290.50	  710.36
      6.0700	 1123.00	  849.62	-2290.50	  707.80
      6.1700	 1065.00	  847.08	-2290.50	  705.26
      6.2700	 1068.00	  844.56	-2290.50	  702.74
      6.3700	 1062.00	  842.06	-2290.50	  700.23
      6.4700	  993.00	  839.57	-2290.50	  697.75
      6.5700	 1075.00	  837.10	-2290.50	  695.28
      6.6700	  951.00	  834.65	-2290.50	  692.83
      6.7700	 1039.00	  832.22	-2290.50	  690.40
      6.8700	  999.00	  829.81	-2290.50	  687.99
      6.9700	  987.00	  827.41	-2290.50	  685.59
      7.0700	  967.00	  825.03	-2290.50	  683.21
      7.1700	  903.00	  822.67	-2290.50	  680.85
      7.2700	  916.00	  820.33	-2290.50	  678.51
      7.3700	  938.00	  818.01	-2290.50	  676.18
      7.4700	  933.00	  815.70	-2290.50	  673.87
      7.5700	  858.00	  813.41	-2290.50	  671.58
      7.6700	  815.00	  811.13	-2290.50	  669.31
      7.7700	  846.00	  808.88	-2290.50	  667.05
      7.8700	  844.00	  806.64	-2290.50	  664.81
      7.9700	  854.00	  804.41	-2290.50	  662.59
      8.0700	  808.00	  802.21	-2290.50	  660.38
      8.1700	  821.00	  800.02	-2290.50	  658.19
      8.2700	  779.00	  797.85	-2290.50	  656.02
      8.3700	  823.00	  795.69	-2290.50	  653.87
      8.4700	  848.00	  793.55	-2290.50	  651.73
      8.5700	  795.00	  791.43	-2290.50	  649.60
      8.6700	  774.00	  789.32	-2290.50	  647.50
      8.7700	  786.00	  787.23	-2290.50	  645.41
      8.8700	  848.00	  785.16	-2290.50	  643.33
      8.9700	  798.00	  783.10	-2290.50	  641.28
      9.0700	  792.00	  781.06	-2290.50	  639.23
      9.1700	  736.00	  779.03	-2290.50	  637.21
      9.2700	  741.00	  777.02	-2290.50	  635.20
      9.3700	  791.00	  775.03	-2290.50	  633.21
      9.4700	  749.00	  773.05	-2290.50	  631.23
      9.5700	  782.00	  771.09	-2290.50	  629.26
      9.6700	  718.00	  769.14	-2290.50	  627.32
      9.7700	  802.00	  767.21	-2290.50	  625.39
      9.8700	  794.00	  765.29	-2290.50	  623.47
      9.9700	  761.00	  763.39	-2290.50	  621.57
     10.0700	  758.00	  763.39	-2295.89	  619.68
     10.1700	  755.00	  761.73	-2297.23	  617.81
     10.2700	  697.00	  760.11	-2353.61	  615.96
     10.3700	  721.00	  758.57	-2328.07	  614.12
     10.4700	  741.00	  757.12	-2306.62	  612.29
     10.5700	  730.00	  755.79	-2316.29	  610.48
     10.6700	  725.00	  754.65	-2320.15	  608.69
     10.7700	  731.00	  753.76	-2313.26	  606.91
     10.8700	  749.00	  753.24	-2294.74	  605.14
     10.9700	  774.00	  753.16	-2269.66	  603.39
     11.0700	  740.00	  753.60	-2304.10	  601.65
     11.1700	  757.00	  754.56	-2288.06	  599.93
     11.2700	  760.00	  756.07	-2286.57	  598.22
     11.3700	  788.00	  758.15	-2260.65	  596.53
     11.4700	  783.00	  760.90	-2268.40	  594.85
     11.5700	  726.00	  764.45	-2328.95	  593.18
     11.6700	  753.00	  769.02	-2306.52	  591.53
     11.7700	  738.00	  774.91	-2327.41	  589.89
     11.8700	  805.00	  782.46	-2267.96	  588.27
     11.9700	  804.00	  791.88	-2278.38	  586.66
     12.0700	  827.00	  802.81	-2266.31	  585.07
     12.1700	  884.00	  813.75	-2220.25	  583.48
     12.2700	  881.00	  821.43	-2230.93	  581.91
     12.3700	  833.00	  820.77	-2278.27	  580.36
     12.4700	  865.00	  808.07	-2233.57	  578.82
     12.5700	  818.00	  787.01	-2259.51	  577.29
     12.6700	  741.00	  765.71	-2315.21	  575.78
     12.7700	  752.00	  748.72	-2287.22	  574.27
     12.8700	  731.00	  736.65	-2296.15	  572.79
     12.9700	  726.00	  728.50	-2293.00	  571.31
     13.0700	  727.00	  722.95	-2286.45	  569.85
     13.1700	  725.00	  718.99	-2284.49	  568.40
     13.2700	  685.00	  715.86	-2321.36	  566.96
     13.3700	  719.00	  713.24	-2284.74	  565.54
     13.4700	  651.00	  710.92	-2350.43	  564.13
     13.5700	  712.00	  708.82	-2287.32	  562.73
     13.6700	  686.00	  706.88	-2311.38	  561.35
     13.7700	  699.00	  705.05	-2296.55	  559.97
     13.8700	  693.00	  703.32	-2300.82	  558.61
     13.9700	  715.00	  701.66	-2277.16	  557.27
     14.0700	  714.00	  700.06	-2276.56	  555.93
     14.1700	  719.00	  698.52	-2270.02	  554.61
     14.2700	  692.00	  697.02	-2295.52	  553.30
     14.3700	  693.00	  695.56	-2293.06	  552.00
     14.4700	  668.00	  694.13	-2316.63	  550.71
     14.5700	  722.00	  692.73	-2261.23	  549.44
     14.6700	  707.00	  691.36	-2274.86	  548.17
     14.7700	  666.00	  690.01	-2314.51	  546.92
     14.8700	  656.00	  688.69	-2323.19	  545.69
     14.9700	  645.00	  687.38	-2332.88	  544.46
     15.0700	  714.00	  686.10	-2262.60	  543.24
     15.1700	  649.00	  684.84	-2326.34	  542.04
     15.2700	  659.00	  683.59	-2315.09	  540.85
     15.3700	  725.00	  682.36	-2247.86	  539.67
     15.4700	  725.00	  681.14	-2246.64	  538.50
     15.5700	  687.00	  679.95	-2283.45	  537.34
     15.6700	  696.00	  678.76	-2273.26	  536.19
     15.7700	  668.00	  677.59	-2300.09	  535.06
     15.8700	  688.00	  676.44	-2278.94	  533.93
     15.9700	  662.00	  675.30	-2303.80	  532.82
     16.0700	  620.00	  674.17	-2344.67	  531.72
     16.1700	  705.00	  673.05	-2258.55	  530.63
     16.2700	  683.00	  671.95	-2279.45	  529.55
     16.3700	  702.00	  670.86	-2259.36	  528.48
     16.4700	  650.00	  669.78	-2310.28	  527.42
     16.5700	  733.00	  668.72	-2226.22	  526.37
     16.6700	  628.00	  667.66	-2330.16	  525.33
     16.7700	  677.00	  666.62	-2280.12	  524.31
     16.8700	  690.00	  665.59	-2266.09	  523.29
     16.9700	  644.00	  664.57	-2311.07	  522.28
     17.0700	  704.00	  663.57	-2250.07	  521.29
     17.1700	  670.00	  662.57	-2283.07	  520.30
     17.2700	  661.00	  661.58	-2291.08	  519.33
     17.3700	  652.00	  660.61	-2299.11	  518.36
     17.4700	  684.00	  659.65	-2266.15	  517.41
     17.5700	  693.00	  658.70	-2256.20	  516.47
     17.6700	  650.00	  657.75	-2298.25	  515.53
     17.7700	  626.00	  656.82	-2321.32	  514.61
     17.8700	  685.00	  655.90	-2261.40	  513.69
     17.9700	  670.00	  654.99	-2275.49	  512.79
     18.0700	  657.00	  654.09	-2287.59	  511.89
     18.1700	  669.00	  653.20	-2274.70	  511.01
     18.2700	  698.00	  652.32	-2244.82	  510.13
     18.3700	  667.00	  651.45	-2274.95	  509.27
     18.4700	  693.00	  650.59	-2248.09	  508.41
     18.5700	  607.00	  649.74	-2333.24	  507.57
     18.6700	  633.00	  648.91	-2306.41	  506.73
     18.7700	  658.00	  648.08	-2280.58	  505.90
     18.8700	  667.00	  647.26	-2270.75	  505.08
     18.9700	  625.00	  646.44	-2311.94	  504.27
     19.0700	  651.00	  645.64	-2285.14	  503.47
     19.1700	  638.00	  648.33	-2300.83	  502.68
     19.2700	  634.00	  647.62	-2304.12	  501.90
     19.3700	  644.00	  646.93	-2293.43	  501.13
     19.4700	  693.00	  646.24	-2243.74	  500.37
     19.5700	  698.00	  645.57	-2238.07	  499.61
     19.6700	  592.00	  644.91	-2343.41	  498.86
     19.7700	  664.00	  644.26	-2270.76	  498.13
     19.8700	  652.00	  643.63	-2282.13	  497.40
     19.9700	  654.00	  643.00	-2279.50	  496.68
     20.0700	  654.00	  642.39	-2278.89	  495.97
     20.1700	  625.00	  641.79	-2307.29	  495.27
     20.2700	  636.00	  641.21	-2295.71	  494.57
     20.3700	  635.00	  640.68	-2296.18	  493.89
     20.4700	  583.00	  640.12	-2347.62	  493.21
     20.5700	  639.00	  639.57	-2291.07	  492.54
     20.6700	  649.00	  639.04	-2280.54	  491.88
     20.7700	  650.00	  638.52	-2279.02	  491.23
     20.8700	  641.00	  638.02	-2287.52	  490.58
     20.9700	  689.00	  637.52	-2239.02	  489.95
     21.0700	  619.00	  637.05	-2308.55	  489.32
     21.1700	  633.00	  636.58	-2294.08	  488.70
     21.2700	  647.00	  636.14	-2279.64	  488.09
     21.3700	  662.00	  635.70	-2264.20	  487.48
     21.4700	  660.00	  635.29	-2265.79	  486.89
     21.5700	  654.00	  634.89	-2271.39	  486.30
     21.6700	  650.00	  634.50	-2275.00	  485.72
     21.7700	  634.00	  634.14	-2290.64	  485.15
     21.8700	  658.00	  633.79	-2266.29	  484.58
     21.9700	  602.00	  633.46	-2321.96	  484.02
     22.0700	  616.00	  633.15	-2307.65	  483.47
     22.1700	  650.00	  632.86	-2273.36	  482.93
     22.2700	  679.00	  632.60	-2244.10	  482.39
     22.3700	  623.00	  632.35	-2299.85	  481.87
     22.4700	  619.00	  632.13	-2303.63	  481.35
     22.5700	  590.00	  631.94	-2332.44	  480.83
     22.6700	  622.00	  631.98	-2300.48	  480.33
     22.7700	  634.00	  631.84	-2288.34	  479.83
     22.8700	  645.00	  631.74	-2277.24	  479.34
     22.9700	  650.00	  631.67	-2272.17	  478.85
     23.0700	  640.00	  631.64	-2282.14	  478.37
     23.1700	  637.00	  631.65	-2285.15	  477.90
     23.2700	  627.00	  631.71	-2295.21	  477.44
     23.3700	  645.00	  631.83	-2277.33	  476.98
     23.4700	  632.00	  632.00	-2290.50	  476.53
     23.5700	  595.00	  632.25	-2327.75	  476.09
     23.6700	  646.00	  632.59	-2277.09	  475.65
     23.7700	  663.00	  633.03	-2260.53	  475.22
     23.8700	  621.00	  633.62	-2303.12	  474.80
     23.9700	  658.00	  634.35	-2266.85	  474.38
     24.0700	  599.00	  635.43	-2326.93	  473.97
     24.1700	  642.00	  636.96	-2285.46	  473.57
     24.2700	  676.00	  639.18	-2253.68	  473.17
     24.3700	  635.00	  642.46	-2297.96	  472.78
     24.4700	  711.00	  647.25	-2226.75	  472.40
     24.5700	  684.00	  653.95	-2260.45	  472.02
     24.6700	  681.00	  662.72	-2272.22	  471.65
     24.7700	  678.00	  673.23	-2285.73	  471.28
     24.8700	  757.00	  684.30	-2217.80	  470.92
     24.9700	  742.00	  693.49	-2241.99	  470.57
     25.0700	  759.00	  697.21	-2228.71	  470.22
     25.1700	  745.00	  692.88	-2238.38	  469.88
     25.2700	  713.00	  682.71	-2260.21	  469.55
     25.3700	  678.00	  671.80	-2284.30	  469.22
     25.4700	  670.00	  663.30	-2283.80	  468.89
     25.5700	  632.00	  657.92	-2316.42	  468.57
     25.6700	  674.00	  655.31	-2271.81	  468.26
     25.7700	  695.00	  654.64	-2250.14	  467.96
     25.8700	  639.00	  655.32	-2306.82	  467.66
     25.9700	  654.00	  656.93	-2293.43	  467.36
     26.0700	  670.00	  659.26	-2279.76	  467.07
     26.1700	  670.00	  662.21	-2282.71	  466.79
     26.2700	  681.00	  665.80	-2275.30	  466.51
     26.3700	  664.00	  670.08	-2296.58	  466.24
     26.4700	  615.00	  675.13	-2350.63	  465.97
     26.5700	  693.00	  681.08	-2278.58	  465.71
     26.6700	  661.00	  688.11	-2317.60	  465.45
     26.7700	  735.00	  696.43	-2251.93	  465.20
     26.8700	  618.00	  706.35	-2378.85	  464.95
     26.9700	  733.00	  718.28	-2275.78	  464.71
     27.0700	  723.00	  732.75	-2300.25	  464.47
     27.1700	  738.00	  750.55	-2303.05	  464.24
     27.2700	  823.00	  772.76	-2240.26	  464.02
     27.3700	  765.00	  801.11	-2326.61	  463.80
     27.4700	  732.00	  838.70	-2397.20	  463.58
     27.5700	  791.00	  892.03	-2391.53	  463.37
     27.6700	  854.00	  975.46	-2411.96	  463.17
     27.7700	  952.00	 1118.97	-2457.47	  462.96
     27.8700	 1038.00	 1377.87	-2630.37	  462.77
     27.9700	 1411.00	 1839.48	-2718.98	  462.58
     28.0700	 1941.00	 2613.63	-2963.13	  462.39
     28.1700	 3358.00	 3788.10	-2720.60	  462.21
     28.2700	 5433.00	 5334.88	-2192.38	  462.03
     28.3700	 7713.00	 6973.78	-1551.28	  461.86
     28.4700	 9162.00	 8098.65	-1227.15	  461.69
     28.5700	 8702.00	 8003.06	-1591.56	  461.52
     28.6700	 6847.00	 6705.30	-2148.80	  461.37
     28.7700	 4937.00	 5201.69	-2555.19	  461.21
     28.8700	 3919.00	 4293.95	-2665.45	  461.06
     28.9700	 4095.00	 4138.39	-2333.89	  460.91
     29.0700	 4689.00	 4454.42	-2055.92	  460.77
     29.1700	 5126.00	 4754.58	-1919.08	  460.63
     29.2700	 4908.00	 4563.65	-1946.15	  460.50
     29.3700	 3841.00	 3784.94	-2234.44	  460.37
     29.4700	 2618.00	 2809.29	-2481.79	  460.25
     29.5700	 1780.00	 1996.97	-2507.47	  460.13
     29.6700	 1364.00	 1456.81	-2383.31	  460.01
     29.7700	 1129.00	 1147.70	-2309.20	  459.90
     29.8700	  966.00	  983.70	-2308.20	  459.79
     29.9700	  858.00	  894.27	-2326.77	  459.68
     30.0700	  859.00	  839.61	-2271.11	  459.58
     30.1700	  799.00	  801.99	-2293.49	  459.49
     30.2700	  759.00	  774.22	-2305.72	  459.39
     30.3700	  780.00	  753.33	-2263.83	  459.30
     30.4700	  731.00	  738.03	-2297.53	  459.22
     30.5700	  743.00	  728.11	-2275.61	  459.14
     30.6700	  720.00	  724.25	-2294.75	  459.06
     30.7700	  719.00	  727.78	-2299.28	  458.98
     30.8700	  781.00	  739.70	-2249.20	  458.91
     30.9700	  782.00	  759.14	-2267.64	  458.85
     31.0700	  794.00	  781.68	-2278.18	  458.78
     31.1700	  803.00	  798.45	-2285.95	  458.72
     31.2700	  801.00	  797.85	-2287.35	  458.67
     31.3700	  770.00	  774.81	-2295.31	  458.61
     31.4700	  790.00	  739.61	-2240.11	  458.56
     31.5700	  735.00	  706.14	-2261.64	  458.52
     31.6700	  698.00	  680.86	-2273.36	  458.47
     31.7700	  720.00	  664.21	-2234.71	  458.43
     31.8700	  658.00	  654.05	-2286.55	  458.40
     31.9700	  668.00	  647.85	-2270.35	  458.36
     32.0700	  681.00	  643.81	-2253.31	  458.33
     32.1700	  676.00	  640.93	-2255.43	  458.31
     32.2700	  695.00	  638.75	-2234.25	  458.28
     32.3700	  665.00	  637.08	-2262.58	  458.26
     32.4700	  644.00	  635.81	-2282.31	  458.25
     32.5700	  673.00	  634.91	-2252.41	  458.23
     32.6700	  697.00	  634.37	-2227.87	  458.22
     32.7700	  694.00	  634.19	-2230.69	  458.21
     32.8700	  641.00	  634.39	-2283.89	  458.20
     32.9700	  652.00	  635.02	-2273.52	  458.20
     33.0700	  658.00	  636.17	-2268.67	  458.20
     33.1700	  692.00	  637.96	-2236.46	  458.20
     33.2700	  683.00	  640.65	-2248.15	  458.21
     33.3700	  699.00	  644.60	-2236.10	  458.22
     33.4700	  663.00	  650.68	-2278.18	  458.23
     33.5700	  647.00	  660.57	-2304.07	  458.24
     33.6700	  643.00	  677.39	-2324.89	  458.26
     33.7700	  759.00	  706.29	-2237.79	  458.28
     33.8700	  712.00	  754.25	-2332.75	  458.30
     33.9700	  861.00	  827.84	-2257.34	  458.33
     34.0700	  943.00	  928.12	-2275.62	  458.35
     34.1700	 1105.00	 1044.08	-2229.58	  458.38
     34.2700	 1257.00	 1148.43	-2181.93	  458.41
     34.3700	 1404.00	 1199.83	-2086.33	  458.45
     34.4700	 1279.00	 1165.08	-2176.58	  458.48
     34.5700	 1083.00	 1058.94	-2266.44	  458.52
     34.6700	  928.00	  933.01	-2295.51	  458.56
     34.7700	  848.00	  825.03	-2267.53	  458.61
     34.8700	  773.00	  747.57	-2265.07	  458.65
     34.9700	  677.00	  698.43	-2311.93	  458.70
     35.0700	  686.00	  669.67	-2274.17	  458.75
     35.1700	  696.00	  653.23	-2247.73	  458.80
     35.2700	  659.00	  643.38	-2274.88	  458.86
     35.3700	  624.00	  636.94	-2303.44	  458.92
     35.4700	  646.00	  632.34	-2276.84	  458.97
     35.5700	  645.00	  628.85	-2274.35	  459.04
     35.6700	  566.00	  626.13	-2350.63	  459.10
     35.7700	  649.00	  623.96	-2265.46	  459.16
     35.8700	  620.00	  622.23	-2292.73	  459.23
     35.9700	  657.00	  620.82	-2254.32	  459.30
     36.0700	  656.00	  619.69	-2254.19	  459.37
     36.1700	  616.00	  618.78	-2293.28	  459.44
     36.2700	  601.00	  618.07	-2307.57	  459.52
     36.3700	  641.00	  617.58	-2267.08	  459.59
     36.4700	  594.00	  617.18	-2313.68	  459.67
     36.5700	  620.00	  616.93	-2287.43	  459.75
     36.6700	  605.00	  616.83	-2302.33	  459.83
     36.7700	  622.00	  616.87	-2285.37	  459.92
     36.8700	  591.00	  617.08	-2316.58	  460.00
     36.9700	  609.00	  617.47	-2298.97	  460.09
     37.0700	  638.00	  618.08	-2270.58	  460.18
     37.1700	  589.00	  618.97	-2320.47	  460.27
     37.2700	  587.00	  620.84	-2324.34	  460.36
     37.3700	  612.00	  623.03	-2301.53	  460.45
     37.4700	  600.00	  626.06	-2316.56	  460.55
     37.5700	  691.00	  630.80	-2230.30	  460.64
     37.6700	  640.00	  638.35	-2288.85	  460.74
     37.7700	  627.00	  650.28	-2313.78	  460.84
     37.8700	  680.00	  668.45	-2278.95	  460.94
     37.9700	  719.00	  694.25	-2265.75	  461.04
     38.0700	  672.00	  725.34	-2343.84	  461.15
     38.1700	  715.00	  762.43	-2337.93	  461.25
     38.2700	  788.00	  795.92	-2298.42	  461.36
     38.3700	  761.00	  814.59	-2344.09	  461.47
     38.4700	  834.00	  808.11	-2264.61	  461.57
     38.5700	  824.00	  777.78	-2244.28	  461.68
     38.6700	  715.00	  737.15	-2312.65	  461.80
     38.7700	  699.00	  698.96	-2290.46	  461.91
     38.8700	  634.00	  669.12	-2325.62	  462.02
     38.9700	  578.00	  648.51	-2361.01	  462.14
     39.0700	  597.00	  635.50	-2329.00	  462.25
     39.1700	  615.00	  627.73	-2303.23	  462.37
     39.2700	  635.00	  623.11	-2278.61	  462.49
     39.3700	  620.00	  620.25	-2290.75	  462.61
     39.4700	  647.00	  617.12	-2260.62	  462.73
     39.5700	  636.00	  615.76	-2270.26	  462.85
     39.6700	  618.00	  614.75	-2287.25	  462.97
     39.7700	  627.00	  613.98	-2277.48	  463.09
     39.8700	  609.00	  613.38	-2294.88	  463.22
     39.9700	  620.00	  612.92	-2283.42	  463.34
     40.0700	  585.00	  612.57	-2318.07	  463.47
     40.1700	  634.00	  612.31	-2268.81	  463.59
     40.2700	  650.00	  612.13	-2252.63	  463.72
     40.3700	  596.00	  612.01	-2306.50	  463.85
     40.4700	  604.00	  611.94	-2298.44	  463.98
     40.5700	  628.00	  611.91	-2274.41	  464.11
     40.6700	  597.00	  611.93	-2305.43	  464.24
     40.7700	  656.00	  612.00	-2246.50	  464.37
