MSG Master    CELL:    5.88108   5.88108  23.10744   90.0000   90.0000  120.0000   SPGR: P 63/m m c             TEMP:    536.55
  2   1280     2.52000     0.00000    -0.08738     0.00000     0.00000    0
    96    96     0     0     2
       0.00000      10.00000
     125.00000     130.00000
 2Theta	Yobs	Ycal	Yobs-Ycal	Backg	Posr	(hkl)	K
      0.7700	    0.00	  935.03	-1961.23	  799.97
      0.8700	    0.00	  932.03	-1961.23	  796.98
      0.9700	   51.00	  929.05	-1961.23	  794.00
      1.0700	   35.00	  926.10	-1961.23	  791.04
      1.1700	   48.00	  923.16	-1961.23	  788.10
      1.2700	   45.00	  920.23	-1961.23	  785.18
      1.3700	   50.00	  917.33	-1961.23	  782.27
      1.4700	  104.00	  914.44	-1961.23	  779.39
      1.5700	  273.00	  911.57	-1961.23	  776.52
      1.6700	  461.00	  908.72	-1961.23	  773.67
      1.7700	  553.00	  905.89	-1961.23	  770.83
      1.8700	  681.00	  903.07	-1961.23	  768.02
      1.9700	  675.00	  900.27	-1961.23	  765.22
      2.0700	  766.00	  897.49	-1961.23	  762.44
      2.1700	  819.00	  894.73	-1961.23	  759.67
      2.2700	  766.00	  891.98	-1961.23	  756.93
      2.3700	  777.00	  889.25	-1961.23	  754.20
      2.4700	  716.00	  886.54	-1961.23	  751.49
      2.5700	  704.00	  883.84	-1961.23	  748.79
      2.6700	  680.00	  881.17	-1961.23	  746.11
      2.7700	  649.00	  878.51	-1961.23	  743.45
      2.8700	  636.00	  875.86	-1961.23	  740.81
      2.9700	  612.00	  873.23	-1961.23	  738.18
      3.0700	  593.00	  870.62	-1961.23	  735.57
      3.1700	  631.00	  868.03	-1961.23	  732.97
      3.2700	  724.00	  865.45	-1961.23	  730.40
      3.3700	  932.00	  862.89	-1961.23	  727.83
      3.4700	 1037.00	  860.34	-1961.23	  725.29
      3.5700	 1248.00	  857.81	-1961.23	  722.76
      3.6700	 1330.00	  855.30	-1961.23	  720.25
      3.7700	 1442.00	  852.81	-1961.23	  717.75
      3.8700	 1458.00	  850.33	-1961.23	  715.27
      3.9700	 1577.00	  847.86	-1961.23	  712.81
      4.0700	 1610.00	  845.41	-1961.23	  710.36
      4.1700	 1725.00	  842.98	-1961.23	  707.93
      4.2700	 1693.00	  840.57	-1961.23	  705.51
      4.3700	 1609.00	  838.16	-1961.23	  703.11
      4.4700	 1576.00	  835.78	-1961.23	  700.73
      4.5700	 1643.00	  833.41	-1961.23	  698.36
      4.6700	 1581.00	  831.06	-1961.23	  696.00
      4.7700	 1466.00	  828.72	-1961.23	  693.67
      4.8700	 1399.00	  826.40	-1961.23	  691.34
      4.9700	 1409.00	  824.09	-1961.23	  689.04
      5.0700	 1303.00	  821.80	-1961.23	  686.74
      5.1700	 1407.00	  819.52	-1961.23	  684.47
      5.2700	 1291.00	  817.26	-1961.23	  682.21
      5.3700	 1225.00	  815.01	-1961.23	  679.96
      5.4700	 1298.00	  812.78	-1961.23	  677.73
      5.5700	 1217.00	  810.57	-1961.23	  675.51
      5.6700	 1128.00	  808.37	-1961.23	  673.31
      5.7700	 1138.00	  806.18	-1961.23	  671.12
      5.8700	 1071.00	  804.01	-1961.23	  668.95
      5.9700	 1111.00	  801.85	-1961.23	  666.80
      6.0700	 1107.00	  799.71	-1961.23	  664.65
      6.1700	 1063.00	  797.58	-1961.23	  662.53
      6.2700	 1083.00	  795.47	-1961.23	  660.41
      6.3700	 1047.00	  793.37	-1961.23	  658.31
      6.4700	  997.00	  791.28	-1961.23	  656.23
      6.5700	  926.00	  789.21	-1961.23	  654.16
      6.6700	  967.00	  787.16	-1961.23	  652.10
      6.7700	  906.00	  785.12	-1961.23	  650.06
      6.8700	  905.00	  783.09	-1961.23	  648.04
      6.9700	  926.00	  781.08	-1961.23	  646.02
      7.0700	  928.00	  779.08	-1961.23	  644.02
      7.1700	  847.00	  777.09	-1961.23	  642.04
      7.2700	  854.00	  775.12	-1961.23	  640.07
      7.3700	  845.00	  773.16	-1961.23	  638.11
      7.4700	  859.00	  771.22	-1961.23	  636.16
      7.5700	  873.00	  769.29	-1961.23	  634.23
      7.6700	  840.00	  767.37	-1961.23	  632.32
      7.7700	  827.00	  765.47	-1961.23	  630.41
      7.8700	  787.00	  763.58	-1961.23	  628.53
      7.9700	  816.00	  761.70	-1961.23	  626.65
      8.0700	  788.00	  759.84	-1961.23	  624.79
      8.1700	  821.00	  757.99	-1961.23	  622.94
      8.2700	  807.00	  756.16	-1961.23	  621.10
      8.3700	  812.00	  754.33	-1961.23	  619.28
      8.4700	  780.00	  752.52	-1961.23	  617.47
      8.5700	  736.00	  750.73	-1961.23	  615.67
      8.6700	  789.00	  748.94	-1961.23	  613.89
      8.7700	  741.00	  747.17	-1961.23	  612.12
      8.8700	  788.00	  745.41	-1961.23	  610.36
      8.9700	  785.00	  743.67	-1961.23	  608.61
      9.0700	  785.00	  741.94	-1961.23	  606.88
      9.1700	  773.00	  740.22	-1961.23	  605.16
      9.2700	  735.00	  738.51	-1961.23	  603.46
      9.3700	  708.00	  736.82	-1961.23	  601.76
      9.4700	  799.00	  735.13	-1961.23	  600.08
      9.5700	  756.00	  733.46	-1961.23	  598.41
      9.6700	  742.00	  731.81	-1961.23	  596.75
      9.7700	  780.00	  730.16	-1961.23	  595.11
      9.8700	  772.00	  728.53	-1961.23	  593.48
      9.9700	  748.00	  726.91	-1961.23	  591.86
     10.0700	  695.00	  727.45	-1993.68	  590.25
     10.1700	  736.00	  726.08	-1951.32	  588.65
     10.2700	  713.00	  724.78	-1973.01	  587.07
     10.3700	  708.00	  723.55	-1976.78	  585.50
     10.4700	  727.00	  722.41	-1956.65	  583.94
     10.5700	  692.00	  721.42	-1990.66	  582.39
     10.6700	  762.00	  720.63	-1919.87	  580.85
     10.7700	  711.00	  720.13	-1970.36	  579.33
     10.8700	  714.00	  720.00	-1967.24	  577.82
     10.9700	  695.00	  720.35	-1986.58	  576.32
     11.0700	  710.00	  721.21	-1972.45	  574.83
     11.1700	  750.00	  722.62	-1933.85	  573.35
     11.2700	  700.00	  724.58	-1985.81	  571.88
     11.3700	  756.00	  727.14	-1932.37	  570.43
     11.4700	  718.00	  730.41	-1973.64	  568.99
     11.5700	  691.00	  734.53	-2004.76	  567.55
     11.6700	  792.00	  739.73	-1908.96	  566.13
     11.7700	  729.00	  746.31	-1978.54	  564.72
     11.8700	  746.00	  754.55	-1969.79	  563.32
     11.9700	  806.00	  764.51	-1919.75	  561.94
     12.0700	  819.00	  775.60	-1917.83	  560.56
     12.1700	  881.00	  786.03	-1866.27	  559.19
     12.2700	  879.00	  792.31	-1874.54	  557.84
     12.3700	  873.00	  789.55	-1877.78	  556.50
     12.4700	  828.00	  775.36	-1908.59	  555.16
     12.5700	  751.00	  754.50	-1964.73	  553.84
     12.6700	  708.00	  734.35	-1987.59	  552.53
     12.7700	  679.00	  718.52	-2000.75	  551.23
     12.8700	  702.00	  707.23	-1966.46	  549.94
     12.9700	  630.00	  699.53	-2030.76	  548.66
     13.0700	  672.00	  694.25	-1983.48	  547.39
     13.1700	  732.00	  690.42	-1919.66	  546.13
     13.2700	  677.00	  687.44	-1971.68	  544.88
     13.3700	  633.00	  684.96	-2013.20	  543.65
     13.4700	  706.00	  682.80	-1938.03	  542.42
     13.5700	  698.00	  680.84	-1944.08	  541.20
     13.6700	  658.00	  679.05	-1982.28	  539.99
     13.7700	  674.00	  677.37	-1964.60	  538.80
     13.8700	  715.00	  675.79	-1922.02	  537.61
     13.9700	  700.00	  674.28	-1935.52	  536.43
     14.0700	  671.00	  672.84	-1963.07	  535.26
     14.1700	  683.00	  671.45	-1949.68	  534.11
     14.2700	  665.00	  670.10	-1966.33	  532.96
     14.3700	  679.00	  668.79	-1951.02	  531.82
     14.4700	  663.00	  667.51	-1965.74	  530.69
     14.5700	  636.00	  666.26	-1991.49	  529.58
     14.6700	  660.00	  665.03	-1966.26	  528.47
     14.7700	  672.00	  663.83	-1953.06	  527.37
     14.8700	  619.00	  662.65	-2004.88	  526.28
     14.9700	  619.00	  661.49	-2003.72	  525.20
     15.0700	  665.00	  660.34	-1956.58	  524.13
     15.1700	  641.00	  659.22	-1979.45	  523.07
     15.2700	  595.00	  658.11	-2024.34	  522.01
     15.3700	  621.00	  657.01	-1997.24	  520.97
     15.4700	  642.00	  655.93	-1975.16	  519.94
     15.5700	  670.00	  654.86	-1946.09	  518.91
     15.6700	  697.00	  653.81	-1918.04	  517.90
     15.7700	  668.00	  652.76	-1946.00	  516.89
     15.8700	  656.00	  651.73	-1956.97	  515.90
     15.9700	  623.00	  650.71	-1988.95	  514.91
     16.0700	  657.00	  649.71	-1953.94	  513.93
     16.1700	  648.00	  648.71	-1961.94	  512.96
     16.2700	  666.00	  647.73	-1942.96	  512.00
     16.3700	  672.00	  646.75	-1935.98	  511.05
     16.4700	  686.00	  645.79	-1921.02	  510.10
     16.5700	  634.00	  644.83	-1972.07	  509.17
     16.6700	  694.00	  643.89	-1911.12	  508.24
     16.7700	  592.00	  642.95	-2012.19	  507.32
     16.8700	  648.00	  642.03	-1955.26	  506.41
     16.9700	  626.00	  641.12	-1976.35	  505.51
     17.0700	  666.00	  640.21	-1935.44	  504.62
     17.1700	  644.00	  639.32	-1956.55	  503.74
     17.2700	  661.00	  638.43	-1938.66	  502.86
     17.3700	  635.00	  637.55	-1963.78	  501.99
     17.4700	  641.00	  636.68	-1956.92	  501.14
     17.5700	  601.00	  635.82	-1996.06	  500.28
     17.6700	  643.00	  634.97	-1953.21	  499.44
     17.7700	  676.00	  634.13	-1919.36	  498.61
     17.8700	  628.00	  633.30	-1966.53	  497.78
     17.9700	  643.00	  632.47	-1950.71	  496.96
     18.0700	  618.00	  631.66	-1974.89	  496.15
     18.1700	  601.00	  630.85	-1991.08	  495.35
     18.2700	  655.00	  630.05	-1936.28	  494.56
     18.3700	  641.00	  629.26	-1949.49	  493.77
     18.4700	  608.00	  628.48	-1981.71	  492.99
     18.5700	  639.00	  627.70	-1949.94	  492.22
     18.6700	  681.00	  626.94	-1907.17	  491.46
     18.7700	  661.00	  626.18	-1926.41	  490.70
     18.8700	  619.00	  625.43	-1967.66	  489.95
     18.9700	  617.00	  624.69	-1968.92	  489.21
     19.0700	  630.00	  626.87	-1958.11	  488.48
     19.1700	  650.00	  626.21	-1937.44	  487.75
     19.2700	  624.00	  625.55	-1962.79	  487.03
     19.3700	  676.00	  624.91	-1910.14	  486.32
     19.4700	  590.00	  624.27	-1995.51	  485.62
     19.5700	  632.00	  623.65	-1952.88	  484.92
     19.6700	  600.00	  623.03	-1984.27	  484.23
     19.7700	  653.00	  622.43	-1930.66	  483.55
     19.8700	  595.00	  621.83	-1988.07	  482.88
     19.9700	  557.00	  621.25	-2025.48	  482.21
     20.0700	  632.00	  620.68	-1949.91	  481.55
     20.1700	  586.00	  620.17	-1995.40	  480.90
     20.2700	  600.00	  619.62	-1980.85	  480.25
     20.3700	  565.00	  619.08	-2015.31	  479.61
     20.4700	  637.00	  618.55	-1942.78	  478.98
     20.5700	  595.00	  618.03	-1984.26	  478.35
     20.6700	  606.00	  617.52	-1972.76	  477.73
     20.7700	  617.00	  617.03	-1961.26	  477.12
     20.8700	  577.00	  616.55	-2000.78	  476.52
     20.9700	  601.00	  616.07	-1976.31	  475.92
     21.0700	  584.00	  615.61	-1992.85	  475.33
     21.1700	  600.00	  615.17	-1976.40	  474.74
     21.2700	  603.00	  614.73	-1972.97	  474.16
     21.3700	  611.00	  614.31	-1964.55	  473.59
     21.4700	  640.00	  613.91	-1935.14	  473.02
     21.5700	  642.00	  613.52	-1932.75	  472.46
     21.6700	  655.00	  613.14	-1919.37	  471.91
     21.7700	  599.00	  612.78	-1975.01	  471.37
     21.8700	  609.00	  612.43	-1964.66	  470.83
     21.9700	  601.00	  612.10	-1972.34	  470.29
     22.0700	  615.00	  611.79	-1958.02	  469.76
     22.1700	  573.00	  611.50	-1999.73	  469.24
     22.2700	  616.00	  611.22	-1956.46	  468.73
     22.3700	  611.00	  610.97	-1961.20	  468.22
     22.4700	  660.00	  610.94	-1912.17	  467.71
     22.5700	  623.00	  610.73	-1948.97	  467.22
     22.6700	  613.00	  610.55	-1958.79	  466.73
     22.7700	  643.00	  610.40	-1928.64	  466.24
     22.8700	  642.00	  610.28	-1929.51	  465.76
     22.9700	  592.00	  610.19	-1979.43	  465.29
     23.0700	  600.00	  610.14	-1971.38	  464.82
     23.1700	  579.00	  610.13	-1992.37	  464.36
     23.2700	  671.00	  610.17	-1900.40	  463.90
     23.3700	  573.00	  610.26	-1998.50	  463.45
     23.4700	  608.00	  610.42	-1963.65	  463.01
     23.5700	  654.00	  610.65	-1917.89	  462.57
     23.6700	  640.00	  610.98	-1932.21	  462.14
     23.7700	  681.00	  611.43	-1891.66	  461.71
     23.8700	  633.00	  612.04	-1940.28	  461.29
     23.9700	  637.00	  612.90	-1937.13	  460.87
     24.0700	  615.00	  614.11	-1960.34	  460.46
     24.1700	  619.00	  615.86	-1958.09	  460.05
     24.2700	  621.00	  618.44	-1958.68	  459.65
     24.3700	  637.00	  622.20	-1946.43	  459.26
     24.4700	  652.00	  627.65	-1936.89	  458.87
     24.5700	  654.00	  635.05	-1942.28	  458.48
     24.6700	  676.00	  644.35	-1929.58	  458.10
     24.7700	  650.00	  654.92	-1966.15	  457.73
     24.8700	  693.00	  665.17	-1933.41	  457.36
     24.9700	  688.00	  672.31	-1945.55	  456.99
     25.0700	  757.00	  672.90	-1877.14	  456.64
     25.1700	  709.00	  665.95	-1918.18	  456.28
     25.2700	  666.00	  655.08	-1950.31	  455.93
     25.3700	  672.00	  644.83	-1934.07	  455.59
     25.4700	  616.00	  637.16	-1982.39	  455.25
     25.5700	  675.00	  632.36	-1918.59	  454.92
     25.6700	  646.00	  629.92	-1945.16	  454.59
     25.7700	  618.00	  629.21	-1972.44	  454.26
     25.8700	  619.00	  629.66	-1971.89	  453.94
     25.9700	  645.00	  630.93	-1947.16	  453.63
     26.0700	  607.00	  632.83	-1987.07	  453.32
     26.1700	  645.00	  635.31	-1951.54	  453.01
     26.2700	  628.00	  638.35	-1971.58	  452.71
     26.3700	  642.00	  642.01	-1961.24	  452.42
     26.4700	  625.00	  646.36	-1982.60	  452.13
     26.5700	  626.00	  651.53	-1986.76	  451.84
     26.6700	  614.00	  657.65	-2004.88	  451.56
     26.7700	  686.00	  664.94	-1940.17	  451.28
     26.8700	  678.00	  673.67	-1956.90	  451.00
     26.9700	  670.00	  684.20	-1975.43	  450.74
     27.0700	  668.00	  697.04	-1990.28	  450.47
     27.1700	  725.00	  712.90	-1949.13	  450.21
     27.2700	  722.00	  732.80	-1972.03	  449.95
     27.3700	  717.00	  758.41	-2002.64	  449.70
     27.4700	  741.00	  792.83	-2013.06	  449.45
     27.5700	  778.00	  842.72	-2025.96	  449.21
     27.6700	  852.00	  922.69	-2031.92	  448.97
     27.7700	  909.00	 1062.31	-2114.54	  448.74
     27.8700	 1058.00	 1314.21	-2217.44	  448.51
     27.9700	 1266.00	 1757.60	-2452.83	  448.28
     28.0700	 1963.00	 2484.43	-2482.66	  448.06
     28.1700	 3099.00	 3553.21	-2415.44	  447.84
     28.2700	 5083.00	 4899.95	-1778.19	  447.62
     28.3700	 7064.00	 6225.84	-1123.07	  447.41
     28.4700	 7825.00	 6971.53	-1107.76	  447.20
     28.5700	 7223.00	 6613.29	-1351.53	  447.00
     28.6700	 5491.00	 5401.69	-1871.93	  446.80
     28.7700	 3901.00	 4221.14	-2281.38	  446.61
     28.8700	 3245.00	 3608.81	-2325.04	  446.41
     28.9700	 3655.00	 3588.17	-1894.41	  446.23
     29.0700	 4212.00	 3869.87	-1619.10	  446.04
     29.1700	 4466.00	 4036.18	-1531.41	  445.86
     29.2700	 3816.00	 3742.35	-1887.59	  445.68
     29.3700	 2974.00	 3025.61	-2012.84	  445.51
     29.4700	 2123.00	 2238.66	-2076.89	  445.34
     29.5700	 1463.00	 1622.52	-2120.75	  445.18
     29.6700	 1156.00	 1226.77	-2032.00	  445.01
     29.7700	  951.00	 1003.86	-2014.10	  444.85
     29.8700	  902.00	  884.79	-1944.02	  444.70
     29.9700	  813.00	  818.04	-1966.28	  444.55
     30.0700	  762.00	  775.99	-1975.22	  444.40
     30.1700	  757.00	  746.56	-1950.80	  444.25
     30.2700	  716.00	  724.89	-1970.13	  444.11
     30.3700	  750.00	  708.98	-1920.21	  443.97
     30.4700	  725.00	  698.19	-1934.42	  443.83
     30.5700	  684.00	  692.88	-1970.11	  443.70
     30.6700	  678.00	  694.25	-1977.49	  443.57
     30.7700	  702.00	  703.93	-1963.17	  443.45
     30.8700	  762.00	  722.63	-1921.86	  443.33
     30.9700	  769.00	  748.30	-1940.53	  443.21
     31.0700	  773.00	  774.57	-1962.81	  443.09
     31.1700	  775.00	  790.26	-1976.49	  442.98
     31.2700	  808.00	  783.11	-1936.35	  442.87
     31.3700	  780.00	  752.43	-1933.67	  442.76
     31.4700	  761.00	  712.91	-1913.14	  442.65
     31.5700	  655.00	  678.09	-1984.32	  442.55
     31.6700	  662.00	  652.85	-1952.09	  442.46
     31.7700	  663.00	  636.67	-1934.90	  442.36
     31.8700	  632.00	  626.93	-1956.16	  442.27
     31.9700	  678.00	  621.01	-1904.24	  442.18
     32.0700	  682.00	  617.14	-1896.38	  442.09
     32.1700	  662.00	  614.40	-1913.63	  442.01
     32.2700	  682.00	  612.34	-1891.57	  441.93
     32.3700	  625.00	  610.78	-1947.02	  441.85
     32.4700	  625.00	  609.64	-1945.87	  441.77
     32.5700	  606.00	  608.87	-1964.10	  441.70
     32.6700	  633.00	  608.45	-1936.68	  441.63
     32.7700	  628.00	  608.40	-1941.63	  441.56
     32.8700	  613.00	  608.77	-1957.01	  441.50
     32.9700	  600.00	  609.57	-1970.80	  441.43
     33.0700	  651.00	  610.91	-1921.15	  441.37
     33.1700	  652.00	  612.96	-1922.19	  441.32
     33.2700	  612.00	  615.98	-1965.22	  441.26
     33.3700	  647.00	  620.52	-1934.75	  441.21
     33.4700	  677.00	  627.62	-1911.85	  441.16
     33.5700	  640.00	  639.30	-1960.53	  441.11
     33.6700	  654.00	  659.12	-1966.35	  441.07
     33.7700	  732.00	  692.43	-1921.66	  441.02
     33.8700	  693.00	  745.59	-2013.83	  440.98
     33.9700	  863.00	  823.04	-1921.27	  440.94
     34.0700	  978.00	  922.04	-1905.27	  440.91
     34.1700	 1094.00	 1027.40	-1894.63	  440.87
     34.2700	 1176.00	 1109.24	-1894.47	  440.84
     34.3700	 1218.00	 1129.51	-1872.74	  440.81
     34.4700	 1197.00	 1070.69	-1834.93	  440.79
     34.5700	 1001.00	  962.52	-1922.76	  440.76
     34.6700	  867.00	  850.74	-1944.97	  440.74
     34.7700	  749.00	  760.69	-1972.93	  440.72
     34.8700	  747.00	  698.22	-1912.46	  440.70
     34.9700	  694.00	  659.19	-1926.43	  440.68
     35.0700	  666.00	  636.26	-1931.49	  440.67
     35.1700	  657.00	  622.82	-1927.06	  440.66
     35.2700	  652.00	  614.49	-1923.72	  440.65
     35.3700	  672.00	  608.84	-1898.07	  440.64
     35.4700	  649.00	  604.70	-1916.94	  440.63
     35.5700	  598.00	  601.52	-1964.75	  440.63
     35.6700	  622.00	  599.01	-1938.24	  440.63
     35.7700	  641.00	  596.99	-1917.22	  440.63
     35.8700	  561.00	  595.36	-1995.59	  440.63
     35.9700	  577.00	  594.03	-1978.26	  440.63
     36.0700	  594.00	  592.95	-1960.19	  440.64
     36.1700	  575.00	  592.08	-1978.31	  440.64
     36.2700	  581.00	  591.39	-1971.62	  440.65
     36.3700	  585.00	  590.86	-1967.09	  440.66
     36.4700	  632.00	  590.48	-1919.71	  440.67
     36.5700	  599.00	  590.24	-1952.47	  440.69
     36.6700	  610.00	  590.14	-1941.37	  440.70
     36.7700	  574.00	  590.19	-1977.42	  440.72
     36.8700	  619.00	  590.41	-1932.64	  440.74
     36.9700	  589.00	  590.83	-1963.07	  440.76
     37.0700	  612.00	  591.71	-1940.94	  440.78
     37.1700	  591.00	  593.29	-1963.52	  440.80
     37.2700	  575.00	  594.83	-1981.06	  440.83
     37.3700	  616.00	  597.16	-1942.39	  440.85
     37.4700	  606.00	  600.75	-1955.99	  440.88
     37.5700	  617.00	  606.34	-1950.58	  440.91
     37.6700	  634.00	  615.14	-1942.38	  440.94
     37.7700	  629.00	  628.59	-1960.83	  440.97
     37.8700	  656.00	  648.10	-1953.33	  441.01
     37.9700	  656.00	  674.22	-1979.46	  441.04
     38.0700	  690.00	  705.48	-1976.71	  441.08
     38.1700	  750.00	  735.67	-1946.91	  441.12
     38.2700	  743.00	  760.34	-1978.57	  441.16
     38.3700	  686.00	  767.51	-2042.75	  441.20
     38.4700	  733.00	  751.61	-1979.85	  441.24
     38.5700	  700.00	  719.28	-1980.51	  441.28
     38.6700	  676.00	  683.23	-1968.47	  441.33
     38.7700	  602.00	  652.05	-2011.28	  441.37
     38.8700	  612.00	  628.73	-1977.97	  441.42
     38.9700	  620.00	  613.02	-1954.25	  441.47
     39.0700	  571.00	  603.17	-1993.40	  441.51
     39.1700	  625.00	  597.21	-1933.44	  441.56
     39.2700	  598.00	  593.55	-1956.78	  441.62
     39.3700	  553.00	  591.18	-1999.41	  441.67
     39.4700	  580.00	  589.52	-1970.75	  441.72
     39.5700	  603.00	  587.28	-1945.51	  441.78
     39.6700	  617.00	  586.35	-1930.58	  441.83
     39.7700	  600.00	  585.62	-1946.85	  441.89
     39.8700	  596.00	  585.05	-1950.28	  441.95
     39.9700	  630.00	  584.60	-1915.83	  442.00
     40.0700	  581.00	  584.25	-1964.48	  442.06
     40.1700	  571.00	  583.97	-1974.21	  442.12
     40.2700	  604.00	  583.77	-1941.00	  442.19
     40.3700	  644.00	  583.62	-1900.85	  442.25
     40.4700	  613.00	  583.52	-1931.75	  442.31
     40.5700	  590.00	  583.46	-1954.70	  442.38
     40.6700	  596.00	  583.45	-1948.69	  442.44
     40.7700	  539.00	  584.01	-2006.25	  442.51
