MSG Master    CELL:    5.88277   5.88277  23.11750   90.0000   90.0000  120.0000   SPGR: P 63/m m c             TEMP:    561.15
  2   1280     2.52000     0.00000    -0.08906     0.00000     0.00000    0
    96    96     0     0     2
       0.00000      10.00000
     125.00000     130.00000
 2Theta	Yobs	Ycal	Yobs-Ycal	Backg	Posr	(hkl)	K
      0.7700	    0.00	  906.44	-1943.85	  773.79
      0.8700	    0.00	  903.73	-1943.85	  771.08
      0.9700	   41.00	  901.04	-1943.85	  768.39
      1.0700	   41.00	  898.36	-1943.85	  765.72
      1.1700	   33.00	  895.70	-1943.85	  763.06
      1.2700	   42.00	  893.06	-1943.85	  760.41
      1.3700	   45.00	  890.43	-1943.85	  757.78
      1.4700	  111.00	  887.82	-1943.85	  755.17
      1.5700	  289.00	  885.22	-1943.85	  752.57
      1.6700	  480.00	  882.64	-1943.85	  749.99
      1.7700	  537.00	  880.07	-1943.85	  747.42
      1.8700	  653.00	  877.52	-1943.85	  744.87
      1.9700	  756.00	  874.98	-1943.85	  742.34
      2.0700	  753.00	  872.46	-1943.85	  739.81
      2.1700	  787.00	  869.95	-1943.85	  737.31
      2.2700	  744.00	  867.46	-1943.85	  734.82
      2.3700	  727.00	  864.99	-1943.85	  732.34
      2.4700	  667.00	  862.53	-1943.85	  729.88
      2.5700	  660.00	  860.08	-1943.85	  727.44
      2.6700	  692.00	  857.65	-1943.85	  725.01
      2.7700	  677.00	  855.24	-1943.85	  722.59
      2.8700	  605.00	  852.83	-1943.85	  720.19
      2.9700	  613.00	  850.45	-1943.85	  717.80
      3.0700	  601.00	  848.08	-1943.85	  715.43
      3.1700	  638.00	  845.72	-1943.85	  713.07
      3.2700	  764.00	  843.38	-1943.85	  710.73
      3.3700	  976.00	  841.05	-1943.85	  708.40
      3.4700	 1055.00	  838.73	-1943.85	  706.09
      3.5700	 1165.00	  836.44	-1943.85	  703.79
      3.6700	 1386.00	  834.15	-1943.85	  701.50
      3.7700	 1325.00	  831.88	-1943.85	  699.23
      3.8700	 1502.00	  829.62	-1943.85	  696.98
      3.9700	 1566.00	  827.38	-1943.85	  694.73
      4.0700	 1614.00	  825.15	-1943.85	  692.51
      4.1700	 1631.00	  822.94	-1943.85	  690.29
      4.2700	 1680.00	  820.74	-1943.85	  688.09
      4.3700	 1665.00	  818.55	-1943.85	  685.90
      4.4700	 1595.00	  816.38	-1943.85	  683.73
      4.5700	 1520.00	  814.22	-1943.85	  681.57
      4.6700	 1566.00	  812.07	-1943.85	  679.43
      4.7700	 1464.00	  809.94	-1943.85	  677.29
      4.8700	 1500.00	  807.82	-1943.85	  675.18
      4.9700	 1377.00	  805.72	-1943.85	  673.07
      5.0700	 1422.00	  803.63	-1943.85	  670.98
      5.1700	 1336.00	  801.55	-1943.85	  668.90
      5.2700	 1233.00	  799.48	-1943.85	  666.84
      5.3700	 1207.00	  797.43	-1943.85	  664.79
      5.4700	 1181.00	  795.40	-1943.85	  662.75
      5.5700	 1227.00	  793.37	-1943.85	  660.73
      5.6700	 1115.00	  791.36	-1943.85	  658.71
      5.7700	 1078.00	  789.36	-1943.85	  656.72
      5.8700	 1138.00	  787.38	-1943.85	  654.73
      5.9700	 1089.00	  785.40	-1943.85	  652.76
      6.0700	 1074.00	  783.45	-1943.85	  650.80
      6.1700	 1036.00	  781.50	-1943.85	  648.85
      6.2700	 1024.00	  779.57	-1943.85	  646.92
      6.3700	  996.00	  777.64	-1943.85	  645.00
      6.4700	  940.00	  775.74	-1943.85	  643.09
      6.5700	  992.00	  773.84	-1943.85	  641.19
      6.6700	  944.00	  771.96	-1943.85	  639.31
      6.7700	  912.00	  770.09	-1943.85	  637.44
      6.8700	  928.00	  768.23	-1943.85	  635.58
      6.9700	  896.00	  766.38	-1943.85	  633.74
      7.0700	  921.00	  764.55	-1943.85	  631.91
      7.1700	  873.00	  762.73	-1943.85	  630.08
      7.2700	  865.00	  760.92	-1943.85	  628.28
      7.3700	  804.00	  759.13	-1943.85	  626.48
      7.4700	  843.00	  757.34	-1943.85	  624.70
      7.5700	  835.00	  755.57	-1943.85	  622.92
      7.6700	  858.00	  753.81	-1943.85	  621.16
      7.7700	  829.00	  752.06	-1943.85	  619.42
      7.8700	  753.00	  750.33	-1943.85	  617.68
      7.9700	  830.00	  748.60	-1943.85	  615.96
      8.0700	  794.00	  746.89	-1943.85	  614.24
      8.1700	  850.00	  745.19	-1943.85	  612.54
      8.2700	  784.00	  743.50	-1943.85	  610.86
      8.3700	  832.00	  741.83	-1943.85	  609.18
      8.4700	  726.00	  740.16	-1943.85	  607.51
      8.5700	  800.00	  738.51	-1943.85	  605.86
      8.6700	  765.00	  736.86	-1943.85	  604.22
      8.7700	  796.00	  735.23	-1943.85	  602.59
      8.8700	  736.00	  733.61	-1943.85	  600.97
      8.9700	  746.00	  732.01	-1943.85	  599.36
      9.0700	  726.00	  730.41	-1943.85	  597.76
      9.1700	  712.00	  728.83	-1943.85	  596.18
      9.2700	  722.00	  727.25	-1943.85	  594.61
      9.3700	  726.00	  725.69	-1943.85	  593.04
      9.4700	  742.00	  724.14	-1943.85	  591.49
      9.5700	  764.00	  722.60	-1943.85	  589.95
      9.6700	  717.00	  721.07	-1943.85	  588.42
      9.7700	  727.00	  719.55	-1943.85	  586.90
      9.8700	  698.00	  718.04	-1943.85	  585.40
      9.9700	  711.00	  716.55	-1943.85	  583.90
     10.0700	  700.00	  717.12	-1960.97	  582.41
     10.1700	  724.00	  715.87	-1935.72	  580.94
     10.2700	  783.00	  714.67	-1875.53	  579.47
     10.3700	  720.00	  713.55	-1937.40	  578.02
     10.4700	  711.00	  712.52	-1945.38	  576.58
     10.5700	  680.00	  711.64	-1975.49	  575.15
     10.6700	  733.00	  710.95	-1921.80	  573.72
     10.7700	  688.00	  710.55	-1966.40	  572.31
     10.8700	  724.00	  710.53	-1930.38	  570.91
     10.9700	  697.00	  710.98	-1957.84	  569.52
     11.0700	  697.00	  711.95	-1958.80	  568.14
     11.1700	  675.00	  713.44	-1982.30	  566.77
     11.2700	  735.00	  715.49	-1924.34	  565.41
     11.3700	  724.00	  718.13	-1937.98	  564.06
     11.4700	  775.00	  721.47	-1890.32	  562.72
     11.5700	  746.00	  725.65	-1923.51	  561.39
     11.6700	  793.00	  730.93	-1881.78	  560.07
     11.7700	  752.00	  737.61	-1929.46	  558.76
     11.8700	  801.00	  745.98	-1888.83	  557.47
     11.9700	  784.00	  756.12	-1915.97	  556.18
     12.0700	  847.00	  767.39	-1864.25	  554.90
     12.1700	  818.00	  777.92	-1903.78	  553.63
     12.2700	  810.00	  784.01	-1917.86	  552.37
     12.3700	  836.00	  780.61	-1888.46	  551.12
     12.4700	  810.00	  765.63	-1899.49	  549.88
     12.5700	  778.00	  744.48	-1910.33	  548.65
     12.6700	  711.00	  724.57	-1957.43	  547.42
     12.7700	  671.00	  709.21	-1982.06	  546.21
     12.8700	  665.00	  698.48	-1977.33	  545.01
     12.9700	  657.00	  691.25	-1978.10	  543.82
     13.0700	  635.00	  686.33	-1995.19	  542.63
     13.1700	  617.00	  682.78	-2009.64	  541.46
     13.2700	  685.00	  680.01	-1938.86	  540.30
     13.3700	  634.00	  677.69	-1987.55	  539.14
     13.4700	  628.00	  675.67	-1991.52	  537.99
     13.5700	  630.00	  673.84	-1987.69	  536.86
     13.6700	  694.00	  672.15	-1922.01	  535.73
     13.7700	  650.00	  670.58	-1964.44	  534.61
     13.8700	  663.00	  669.10	-1949.96	  533.50
     13.9700	  688.00	  667.69	-1923.54	  532.40
     14.0700	  645.00	  666.34	-1965.19	  531.31
     14.1700	  662.00	  665.03	-1946.89	  530.22
     14.2700	  670.00	  663.77	-1937.62	  529.15
     14.3700	  694.00	  662.54	-1912.39	  528.08
     14.4700	  589.00	  661.34	-2016.19	  527.03
     14.5700	  640.00	  660.17	-1964.02	  525.98
     14.6700	  659.00	  659.02	-1943.87	  524.94
     14.7700	  660.00	  657.89	-1941.74	  523.91
     14.8700	  615.00	  656.78	-1985.63	  522.89
     14.9700	  705.00	  655.69	-1894.54	  521.87
     15.0700	  652.00	  654.62	-1946.47	  520.87
     15.1700	  615.00	  653.56	-1982.41	  519.87
     15.2700	  632.00	  652.51	-1964.37	  518.88
     15.3700	  634.00	  651.48	-1961.33	  517.90
     15.4700	  668.00	  650.47	-1926.32	  516.93
     15.5700	  602.00	  649.46	-1991.31	  515.97
     15.6700	  642.00	  648.47	-1950.32	  515.01
     15.7700	  594.00	  647.49	-1997.34	  514.07
     15.8700	  697.00	  646.52	-1893.37	  513.13
     15.9700	  669.00	  645.56	-1920.41	  512.20
     16.0700	  669.00	  644.61	-1919.46	  511.27
     16.1700	  660.00	  643.67	-1927.52	  510.36
     16.2700	  634.00	  642.74	-1952.59	  509.45
     16.3700	  622.00	  641.82	-1963.67	  508.55
     16.4700	  637.00	  640.91	-1947.76	  507.66
     16.5700	  641.00	  640.01	-1942.86	  506.78
     16.6700	  647.00	  639.12	-1935.97	  505.91
     16.7700	  641.00	  638.23	-1941.09	  505.04
     16.8700	  649.00	  637.36	-1932.21	  504.18
     16.9700	  628.00	  636.50	-1952.35	  503.33
     17.0700	  603.00	  635.64	-1976.49	  502.48
     17.1700	  666.00	  634.79	-1912.64	  501.65
     17.2700	  643.00	  633.95	-1934.80	  500.82
     17.3700	  622.00	  633.12	-1954.97	  500.00
     17.4700	  662.00	  632.30	-1914.15	  499.18
     17.5700	  646.00	  631.48	-1929.33	  498.38
     17.6700	  647.00	  630.68	-1927.53	  497.58
     17.7700	  674.00	  629.88	-1899.73	  496.78
     17.8700	  625.00	  629.09	-1947.94	  496.00
     17.9700	  622.00	  628.30	-1950.16	  495.22
     18.0700	  689.00	  627.53	-1882.38	  494.45
     18.1700	  651.00	  626.76	-1919.61	  493.69
     18.2700	  574.00	  626.00	-1995.85	  492.93
     18.3700	  646.00	  625.25	-1923.10	  492.19
     18.4700	  627.00	  624.50	-1941.36	  491.45
     18.5700	  642.00	  623.77	-1925.62	  490.71
     18.6700	  655.00	  623.04	-1911.89	  489.98
     18.7700	  622.00	  622.31	-1944.17	  489.26
     18.8700	  600.00	  621.60	-1965.45	  488.55
     18.9700	  619.00	  623.60	-1948.45	  487.84
     19.0700	  603.00	  622.96	-1963.81	  487.14
     19.1700	  612.00	  622.32	-1954.17	  486.45
     19.2700	  618.00	  621.70	-1947.55	  485.76
     19.3700	  611.00	  621.08	-1953.93	  485.08
     19.4700	  670.00	  620.47	-1894.32	  484.41
     19.5700	  603.00	  619.87	-1960.73	  483.75
     19.6700	  597.00	  619.29	-1966.14	  483.09
     19.7700	  586.00	  618.71	-1976.56	  482.43
     19.8700	  615.00	  618.14	-1946.99	  481.79
     19.9700	  647.00	  617.57	-1914.43	  481.15
     20.0700	  609.00	  617.02	-1951.88	  480.51
     20.1700	  642.00	  616.48	-1918.33	  479.89
     20.2700	  574.00	  616.00	-1985.85	  479.27
     20.3700	  582.00	  615.48	-1977.33	  478.65
     20.4700	  616.00	  614.97	-1942.82	  478.04
     20.5700	  649.00	  614.47	-1909.32	  477.44
     20.6700	  641.00	  613.98	-1916.83	  476.85
     20.7700	  598.00	  613.50	-1959.35	  476.26
     20.8700	  582.00	  613.03	-1974.88	  475.68
     20.9700	  641.00	  612.58	-1915.43	  475.10
     21.0700	  600.00	  612.13	-1955.98	  474.53
     21.1700	  602.00	  611.70	-1953.55	  473.96
     21.2700	  665.00	  611.28	-1890.13	  473.40
     21.3700	  578.00	  610.87	-1976.72	  472.85
     21.4700	  590.00	  610.47	-1964.33	  472.30
     21.5700	  635.00	  610.09	-1918.94	  471.76
     21.6700	  598.00	  609.72	-1955.58	  471.23
     21.7700	  610.00	  609.37	-1943.22	  470.70
     21.8700	  644.00	  609.03	-1908.88	  470.18
     21.9700	  637.00	  608.71	-1915.56	  469.66
     22.0700	  664.00	  608.40	-1888.25	  469.15
     22.1700	  597.00	  608.11	-1954.97	  468.64
     22.2700	  636.00	  607.84	-1915.70	  468.14
     22.3700	  604.00	  607.59	-1947.44	  467.65
     22.4700	  623.00	  607.56	-1928.41	  467.16
     22.5700	  566.00	  607.35	-1985.21	  466.67
     22.6700	  610.00	  607.17	-1941.03	  466.19
     22.7700	  615.00	  607.02	-1935.87	  465.72
     22.8700	  567.00	  606.89	-1983.75	  465.25
     22.9700	  565.00	  606.80	-1985.65	  464.79
     23.0700	  619.00	  606.74	-1931.60	  464.34
     23.1700	  616.00	  606.73	-1934.58	  463.89
     23.2700	  604.00	  606.75	-1946.61	  463.44
     23.3700	  567.00	  606.83	-1983.69	  463.00
     23.4700	  640.00	  606.98	-1910.83	  462.56
     23.5700	  629.00	  607.19	-1922.05	  462.13
     23.6700	  577.00	  607.51	-1974.36	  461.71
     23.7700	  643.00	  607.94	-1908.79	  461.29
     23.8700	  629.00	  608.53	-1923.38	  460.87
     23.9700	  609.00	  609.36	-1944.22	  460.46
     24.0700	  598.00	  610.56	-1956.41	  460.06
     24.1700	  626.00	  612.27	-1930.12	  459.66
     24.2700	  607.00	  614.89	-1951.75	  459.27
     24.3700	  588.00	  618.78	-1974.64	  458.88
     24.4700	  648.00	  624.37	-1920.22	  458.49
     24.5700	  658.00	  631.94	-1917.80	  458.11
     24.6700	  679.00	  641.42	-1906.27	  457.74
     24.7700	  674.00	  652.07	-1921.92	  457.37
     24.8700	  718.00	  662.15	-1888.01	  457.00
     24.9700	  723.00	  668.66	-1889.51	  456.64
     25.0700	  673.00	  668.14	-1938.99	  456.29
     25.1700	  686.00	  660.18	-1918.03	  455.93
     25.2700	  658.00	  648.96	-1934.81	  455.59
     25.3700	  698.00	  638.80	-1884.66	  455.25
     25.4700	  613.00	  631.53	-1962.38	  454.91
     25.5700	  670.00	  627.07	-1900.93	  454.58
     25.6700	  651.00	  624.91	-1917.76	  454.25
     25.7700	  617.00	  624.35	-1951.20	  453.92
     25.8700	  651.00	  624.86	-1917.71	  453.60
     25.9700	  613.00	  626.12	-1956.97	  453.29
     26.0700	  586.00	  627.96	-1985.81	  452.98
     26.1700	  628.00	  630.34	-1946.20	  452.67
     26.2700	  625.00	  633.27	-1952.12	  452.37
     26.3700	  624.00	  636.78	-1956.64	  452.07
     26.4700	  634.00	  640.97	-1950.82	  451.78
     26.5700	  634.00	  645.93	-1955.78	  451.49
     26.6700	  678.00	  651.82	-1917.68	  451.21
     26.7700	  608.00	  658.85	-1994.70	  450.93
     26.8700	  688.00	  667.27	-1923.12	  450.65
     26.9700	  674.00	  677.44	-1947.29	  450.38
     27.0700	  635.00	  689.86	-1998.72	  450.11
     27.1700	  653.00	  705.23	-1996.08	  449.85
     27.2700	  696.00	  724.57	-1972.42	  449.59
     27.3700	  685.00	  749.55	-2008.40	  449.33
     27.4700	  741.00	  783.36	-1986.21	  449.08
     27.5700	  799.00	  832.81	-1977.66	  448.83
     27.6700	  841.00	  912.62	-2015.47	  448.59
     27.7700	  840.00	 1051.95	-2155.80	  448.35
     27.8700	 1011.00	 1301.50	-2234.35	  448.11
     27.9700	 1349.00	 1735.46	-2330.32	  447.88
     28.0700	 1910.00	 2435.64	-2469.49	  447.65
     28.1700	 3059.00	 3445.15	-2330.01	  447.42
     28.2700	 4903.00	 4685.13	-1725.98	  447.20
     28.3700	 6700.00	 5859.18	-1103.03	  446.99
     28.4700	 7309.00	 6448.58	-1083.43	  446.77
     28.5700	 6477.00	 6023.09	-1489.95	  446.56
     28.6700	 4882.00	 4898.17	-1960.02	  446.36
     28.7700	 3566.00	 3870.60	-2248.46	  446.15
     28.8700	 3129.00	 3373.41	-2188.27	  445.95
     28.9700	 3505.00	 3393.01	-1831.86	  445.76
     29.0700	 3959.00	 3651.14	-1635.99	  445.56
     29.1700	 4118.00	 3764.83	-1590.68	  445.38
     29.2700	 3573.00	 3441.94	-1812.79	  445.19
     29.3700	 2703.00	 2759.93	-2000.79	  445.01
     29.4700	 1924.00	 2045.76	-2065.61	  444.83
     29.5700	 1315.00	 1499.24	-2128.09	  444.66
     29.6700	 1022.00	 1152.75	-2074.61	  444.48
     29.7700	  946.00	  958.54	-1956.39	  444.32
     29.8700	  891.00	  854.23	-1907.08	  444.15
     29.9700	  839.00	  794.92	-1899.77	  443.99
     30.0700	  813.00	  756.95	-1887.80	  443.83
     30.1700	  788.00	  730.08	-1885.93	  443.67
     30.2700	  728.00	  710.10	-1925.95	  443.52
     30.3700	  688.00	  695.27	-1951.12	  443.37
     30.4700	  694.00	  684.98	-1934.83	  443.23
     30.5700	  692.00	  679.45	-1931.30	  443.08
     30.6700	  703.00	  679.60	-1920.45	  442.94
     30.7700	  747.00	  686.61	-1883.47	  442.81
     30.8700	  681.00	  700.82	-1963.67	  442.67
     30.9700	  754.00	  720.27	-1910.12	  442.54
     31.0700	  792.00	  739.50	-1891.35	  442.42
     31.1700	  733.00	  749.37	-1960.22	  442.29
     31.2700	  743.00	  740.75	-1941.60	  442.17
     31.3700	  760.00	  714.71	-1898.56	  442.05
     31.4700	  664.00	  683.38	-1963.23	  441.93
     31.5700	  654.00	  656.58	-1946.43	  441.82
     31.6700	  669.00	  637.44	-1912.29	  441.71
     31.7700	  647.00	  625.22	-1922.07	  441.60
     31.8700	  621.00	  617.80	-1940.66	  441.50
     31.9700	  627.00	  613.21	-1930.06	  441.40
     32.0700	  628.00	  610.13	-1925.98	  441.30
     32.1700	  663.00	  607.90	-1888.76	  441.20
     32.2700	  668.00	  606.22	-1882.08	  441.11
     32.3700	  618.00	  604.96	-1930.81	  441.02
     32.4700	  622.00	  604.05	-1925.90	  440.93
     32.5700	  633.00	  603.47	-1914.33	  440.84
     32.6700	  632.00	  603.22	-1915.07	  440.76
     32.7700	  613.00	  603.31	-1934.16	  440.68
     32.8700	  599.00	  603.78	-1948.63	  440.60
     32.9700	  617.00	  604.72	-1931.57	  440.52
     33.0700	  599.00	  606.17	-1951.02	  440.45
     33.1700	  644.00	  608.33	-1908.18	  440.38
     33.2700	  642.00	  611.49	-1913.34	  440.31
     33.3700	  668.00	  616.23	-1892.08	  440.24
     33.4700	  634.00	  623.67	-1933.53	  440.18
     33.5700	  660.00	  636.00	-1919.86	  440.12
     33.6700	  662.00	  656.99	-1938.84	  440.06
     33.7700	  673.00	  692.22	-1963.07	  440.00
     33.8700	  721.00	  748.09	-1970.94	  439.95
     33.9700	  826.00	  828.53	-1946.38	  439.90
     34.0700	  959.00	  929.49	-1914.35	  439.85
     34.1700	 1052.00	 1033.84	-1925.69	  439.80
     34.2700	 1237.00	 1109.76	-1816.61	  439.75
     34.3700	 1217.00	 1119.49	-1846.34	  439.71
     34.4700	 1107.00	 1051.18	-1888.03	  439.67
     34.5700	 1003.00	  939.95	-1880.80	  439.63
     34.6700	  876.00	  830.20	-1898.05	  439.59
     34.7700	  727.00	  744.15	-1961.00	  439.56
     34.8700	  723.00	  685.68	-1906.53	  439.53
     34.9700	  707.00	  649.72	-1886.57	  439.50
     35.0700	  677.00	  628.77	-1895.63	  439.47
     35.1700	  667.00	  616.49	-1893.34	  439.44
     35.2700	  658.00	  608.78	-1894.63	  439.42
     35.3700	  620.00	  603.49	-1927.34	  439.39
     35.4700	  595.00	  599.57	-1948.43	  439.37
     35.5700	  563.00	  596.55	-1977.40	  439.35
     35.6700	  630.00	  594.14	-1907.99	  439.34
     35.7700	  608.00	  592.21	-1928.06	  439.32
     35.8700	  616.00	  590.64	-1918.49	  439.31
     35.9700	  574.00	  589.35	-1959.20	  439.30
     36.0700	  589.00	  588.30	-1943.16	  439.29
     36.1700	  618.00	  587.45	-1913.31	  439.28
     36.2700	  588.00	  586.78	-1942.63	  439.27
     36.3700	  575.00	  586.25	-1955.10	  439.27
     36.4700	  601.00	  585.86	-1928.71	  439.27
     36.5700	  572.00	  585.61	-1957.46	  439.27
     36.6700	  608.00	  585.49	-1921.34	  439.27
     36.7700	  597.00	  585.52	-1932.37	  439.27
     36.8700	  590.00	  585.71	-1939.56	  439.27
     36.9700	  581.00	  586.09	-1948.94	  439.28
     37.0700	  650.00	  587.22	-1881.07	  439.29
     37.1700	  566.00	  588.39	-1966.25	  439.29
     37.2700	  574.00	  589.89	-1959.74	  439.30
     37.3700	  608.00	  592.14	-1928.00	  439.32
     37.4700	  633.00	  595.70	-1906.56	  439.33
     37.5700	  612.00	  601.36	-1933.21	  439.35
     37.6700	  597.00	  610.13	-1956.98	  439.36
     37.7700	  633.00	  623.43	-1934.28	  439.38
     37.8700	  652.00	  642.50	-1934.35	  439.40
     37.9700	  658.00	  667.59	-1953.44	  439.42
     38.0700	  698.00	  696.90	-1942.75	  439.44
     38.1700	  789.00	  724.18	-1879.03	  439.47
     38.2700	  760.00	  744.92	-1928.77	  439.49
     38.3700	  742.00	  748.08	-1949.93	  439.52
     38.4700	  725.00	  729.99	-1948.85	  439.54
     38.5700	  667.00	  698.52	-1975.37	  439.57
     38.6700	  640.00	  665.36	-1969.21	  439.60
     38.7700	  606.00	  637.58	-1975.43	  439.63
     38.8700	  582.00	  617.29	-1979.14	  439.67
     38.9700	  563.00	  603.88	-1984.73	  439.70
     39.0700	  616.00	  595.60	-1923.45	  439.74
     39.1700	  574.00	  590.61	-1960.47	  439.77
     39.2700	  607.00	  587.54	-1924.39	  439.81
     39.3700	  642.00	  585.52	-1887.37	  439.85
     39.4700	  592.00	  584.09	-1935.94	  439.89
     39.5700	  588.00	  582.08	-1937.93	  439.93
     39.6700	  607.00	  581.27	-1918.12	  439.97
     39.7700	  566.00	  580.63	-1958.48	  440.01
     39.8700	  571.00	  580.13	-1952.98	  440.06
     39.9700	  622.00	  579.73	-1901.58	  440.10
     40.0700	  556.00	  579.42	-1967.27	  440.15
     40.1700	  610.00	  579.18	-1913.03	  440.20
     40.2700	  580.00	  579.00	-1942.85	  440.25
     40.3700	  593.00	  578.87	-1929.72	  440.29
     40.4700	  607.00	  578.79	-1915.64	  440.34
     40.5700	  589.00	  578.74	-1933.60	  440.40
     40.6700	  626.00	  578.74	-1896.59	  440.45
     40.7700	  567.00	  579.30	-1956.15	  440.50
