MSG Master    CELL:    5.87846   5.87846  23.08969   90.0000   90.0000  120.0000   SPGR: P 63/m m c             TEMP:    491.45
  2   1280     2.52000     0.00000    -0.08758     0.00000     0.00000    0
    95    95     0     0     2
       0.00000      10.00000
     125.00000     130.00000
 2Theta	Yobs	Ycal	Yobs-Ycal	Backg	Posr	(hkl)	K
      0.7700	    0.00	  926.66	-2136.00	  788.70
      0.8700	    0.00	  923.84	-2136.00	  785.88
      0.9700	   42.00	  921.04	-2136.00	  783.08
      1.0700	   49.00	  918.26	-2136.00	  780.29
      1.1700	   64.00	  915.49	-2136.00	  777.53
      1.2700	   58.00	  912.74	-2136.00	  774.77
      1.3700	   35.00	  910.00	-2136.00	  772.04
      1.4700	  122.00	  907.29	-2136.00	  769.32
      1.5700	  297.00	  904.59	-2136.00	  766.62
      1.6700	  447.00	  901.90	-2136.00	  763.94
      1.7700	  612.00	  899.23	-2136.00	  761.27
      1.8700	  676.00	  896.58	-2136.00	  758.62
      1.9700	  772.00	  893.95	-2136.00	  755.98
      2.0700	  780.00	  891.33	-2136.00	  753.37
      2.1700	  781.00	  888.73	-2136.00	  750.76
      2.2700	  753.00	  886.14	-2136.00	  748.18
      2.3700	  764.00	  883.57	-2136.00	  745.61
      2.4700	  714.00	  881.02	-2136.00	  743.05
      2.5700	  719.00	  878.48	-2136.00	  740.52
      2.6700	  633.00	  875.96	-2136.00	  738.00
      2.7700	  635.00	  873.45	-2136.00	  735.49
      2.8700	  662.00	  870.96	-2136.00	  733.00
      2.9700	  629.00	  868.49	-2136.00	  730.53
      3.0700	  598.00	  866.03	-2136.00	  728.07
      3.1700	  632.00	  863.59	-2136.00	  725.62
      3.2700	  743.00	  861.16	-2136.00	  723.20
      3.3700	  950.00	  858.75	-2136.00	  720.78
      3.4700	 1072.00	  856.35	-2136.00	  718.39
      3.5700	 1206.00	  853.97	-2136.00	  716.01
      3.6700	 1329.00	  851.60	-2136.00	  713.64
      3.7700	 1473.00	  849.25	-2136.00	  711.29
      3.8700	 1543.00	  846.92	-2136.00	  708.95
      3.9700	 1659.00	  844.60	-2136.00	  706.63
      4.0700	 1736.00	  842.29	-2136.00	  704.33
      4.1700	 1632.00	  840.00	-2136.00	  702.04
      4.2700	 1698.00	  837.73	-2136.00	  699.76
      4.3700	 1763.00	  835.47	-2136.00	  697.50
      4.4700	 1623.00	  833.22	-2136.00	  695.26
      4.5700	 1540.00	  830.99	-2136.00	  693.03
      4.6700	 1463.00	  828.77	-2136.00	  690.81
      4.7700	 1389.00	  826.57	-2136.00	  688.61
      4.8700	 1376.00	  824.38	-2136.00	  686.42
      4.9700	 1326.00	  822.21	-2136.00	  684.25
      5.0700	 1328.00	  820.05	-2136.00	  682.09
      5.1700	 1321.00	  817.91	-2136.00	  679.94
      5.2700	 1294.00	  815.78	-2136.00	  677.81
      5.3700	 1227.00	  813.66	-2136.00	  675.70
      5.4700	 1239.00	  811.56	-2136.00	  673.60
      5.5700	 1235.00	  809.47	-2136.00	  671.51
      5.6700	 1137.00	  807.40	-2136.00	  669.44
      5.7700	 1158.00	  805.34	-2136.00	  667.38
      5.8700	 1140.00	  803.29	-2136.00	  665.33
      5.9700	 1081.00	  801.26	-2136.00	  663.30
      6.0700	 1119.00	  799.24	-2136.00	  661.28
      6.1700	 1012.00	  797.24	-2136.00	  659.28
      6.2700	 1058.00	  795.25	-2136.00	  657.29
      6.3700	 1048.00	  793.27	-2136.00	  655.31
      6.4700	 1007.00	  791.31	-2136.00	  653.34
      6.5700	  995.00	  789.36	-2136.00	  651.39
      6.6700	  982.00	  787.42	-2136.00	  649.46
      6.7700	  942.00	  785.50	-2136.00	  647.53
      6.8700	  952.00	  783.59	-2136.00	  645.62
      6.9700	  974.00	  781.69	-2136.00	  643.73
      7.0700	  937.00	  779.81	-2136.00	  641.84
      7.1700	  920.00	  777.94	-2136.00	  639.97
      7.2700	  855.00	  776.08	-2136.00	  638.12
      7.3700	  850.00	  774.24	-2136.00	  636.27
      7.4700	  853.00	  772.40	-2136.00	  634.44
      7.5700	  918.00	  770.59	-2136.00	  632.62
      7.6700	  843.00	  768.78	-2136.00	  630.82
      7.7700	  809.00	  766.99	-2136.00	  629.02
      7.8700	  826.00	  765.21	-2136.00	  627.24
      7.9700	  813.00	  763.44	-2136.00	  625.48
      8.0700	  781.00	  761.68	-2136.00	  623.72
      8.1700	  810.00	  759.94	-2136.00	  621.98
      8.2700	  787.00	  758.21	-2136.00	  620.25
      8.3700	  776.00	  756.49	-2136.00	  618.53
      8.4700	  786.00	  754.79	-2136.00	  616.83
      8.5700	  798.00	  753.10	-2136.00	  615.13
      8.6700	  753.00	  751.42	-2136.00	  613.45
      8.7700	  784.00	  749.75	-2136.00	  611.78
      8.8700	  754.00	  748.09	-2136.00	  610.13
      8.9700	  742.00	  746.45	-2136.00	  608.48
      9.0700	  745.00	  744.81	-2136.00	  606.85
      9.1700	  792.00	  743.19	-2136.00	  605.23
      9.2700	  738.00	  741.58	-2136.00	  603.62
      9.3700	  778.00	  739.99	-2136.00	  602.02
      9.4700	  737.00	  738.40	-2136.00	  600.44
      9.5700	  778.00	  736.83	-2136.00	  598.87
      9.6700	  733.00	  735.27	-2136.00	  597.31
      9.7700	  702.00	  733.72	-2136.00	  595.76
      9.8700	  755.00	  732.18	-2136.00	  594.22
      9.9700	  729.00	  730.65	-2136.00	  592.69
     10.0700	  730.00	  731.38	-2137.38	  591.18
     10.1700	  685.00	  730.12	-2181.12	  589.67
     10.2700	  726.00	  728.92	-2138.92	  588.18
     10.3700	  771.00	  727.80	-2092.80	  586.70
     10.4700	  658.00	  726.78	-2204.78	  585.23
     10.5700	  702.00	  725.90	-2159.90	  583.77
     10.6700	  738.00	  725.22	-2123.22	  582.32
     10.7700	  781.00	  724.81	-2079.81	  580.88
     10.8700	  714.00	  724.77	-2146.77	  579.46
     10.9700	  685.00	  725.19	-2176.19	  578.04
     11.0700	  797.00	  726.12	-2065.12	  576.64
     11.1700	  692.00	  727.58	-2171.58	  575.25
     11.2700	  758.00	  729.60	-2107.60	  573.87
     11.3700	  729.00	  732.22	-2139.22	  572.50
     11.4700	  736.00	  735.54	-2135.54	  571.13
     11.5700	  738.00	  739.69	-2137.69	  569.79
     11.6700	  738.00	  744.88	-2142.88	  568.45
     11.7700	  733.00	  751.38	-2154.38	  567.12
     11.8700	  786.00	  759.42	-2109.42	  565.80
     11.9700	  835.00	  768.98	-2069.98	  564.49
     12.0700	  866.00	  779.50	-2049.50	  563.19
     12.1700	  816.00	  789.40	-2109.40	  561.91
     12.2700	  826.00	  795.61	-2105.61	  560.63
     12.3700	  854.00	  793.74	-2075.74	  559.36
     12.4700	  763.00	  781.33	-2154.33	  558.11
     12.5700	  747.00	  762.09	-2151.09	  556.86
     12.6700	  776.00	  742.71	-2102.71	  555.63
     12.7700	  735.00	  726.95	-2127.95	  554.40
     12.8700	  757.00	  715.40	-2094.40	  553.18
     12.9700	  698.00	  707.33	-2145.33	  551.98
     13.0700	  715.00	  701.72	-2122.72	  550.78
     13.1700	  630.00	  697.68	-2203.68	  549.59
     13.2700	  699.00	  694.57	-2131.57	  548.42
     13.3700	  658.00	  692.02	-2170.02	  547.25
     13.4700	  702.00	  689.83	-2123.83	  546.09
     13.5700	  696.00	  687.87	-2127.87	  544.95
     13.6700	  689.00	  686.09	-2133.09	  543.81
     13.7700	  719.00	  684.43	-2101.43	  542.68
     13.8700	  645.00	  682.88	-2173.88	  541.56
     13.9700	  666.00	  681.41	-2151.41	  540.45
     14.0700	  672.00	  680.01	-2144.01	  539.35
     14.1700	  653.00	  678.66	-2161.66	  538.26
     14.2700	  688.00	  677.36	-2125.36	  537.18
     14.3700	  687.00	  676.10	-2125.10	  536.10
     14.4700	  635.00	  674.87	-2175.87	  535.04
     14.5700	  654.00	  673.67	-2155.67	  533.99
     14.6700	  663.00	  672.50	-2145.50	  532.94
     14.7700	  646.00	  671.35	-2161.35	  531.91
     14.8700	  637.00	  670.22	-2169.22	  530.88
     14.9700	  670.00	  669.12	-2135.12	  529.86
     15.0700	  674.00	  668.03	-2130.03	  528.85
     15.1700	  641.00	  666.95	-2161.95	  527.85
     15.2700	  666.00	  665.90	-2135.90	  526.86
     15.3700	  651.00	  664.86	-2149.86	  525.88
     15.4700	  669.00	  663.83	-2130.83	  524.90
     15.5700	  659.00	  662.82	-2139.82	  523.94
     15.6700	  694.00	  661.82	-2103.82	  522.98
     15.7700	  654.00	  660.83	-2142.83	  522.03
     15.8700	  650.00	  659.85	-2145.85	  521.09
     15.9700	  661.00	  658.89	-2133.89	  520.16
     16.0700	  692.00	  657.93	-2101.93	  519.24
     16.1700	  672.00	  656.99	-2120.99	  518.33
     16.2700	  666.00	  656.06	-2126.06	  517.42
     16.3700	  673.00	  655.14	-2118.14	  516.52
     16.4700	  638.00	  654.22	-2152.22	  515.63
     16.5700	  630.00	  653.32	-2159.32	  514.75
     16.6700	  692.00	  652.43	-2096.43	  513.88
     16.7700	  652.00	  651.55	-2135.55	  513.01
     16.8700	  670.00	  650.67	-2116.67	  512.16
     16.9700	  662.00	  649.81	-2123.81	  511.31
     17.0700	  630.00	  648.95	-2154.95	  510.47
     17.1700	  653.00	  648.11	-2131.11	  509.63
     17.2700	  668.00	  647.27	-2115.27	  508.81
     17.3700	  639.00	  646.44	-2143.44	  507.99
     17.4700	  632.00	  645.62	-2149.62	  507.18
     17.5700	  653.00	  644.81	-2127.81	  506.38
     17.6700	  630.00	  644.01	-2150.01	  505.58
     17.7700	  637.00	  643.21	-2142.21	  504.80
     17.8700	  655.00	  642.43	-2123.43	  504.02
     17.9700	  642.00	  641.65	-2135.65	  503.25
     18.0700	  666.00	  640.88	-2110.88	  502.48
     18.1700	  659.00	  640.12	-2117.12	  501.73
     18.2700	  610.00	  639.36	-2165.36	  500.98
     18.3700	  595.00	  638.62	-2179.62	  500.24
     18.4700	  640.00	  637.88	-2133.88	  499.50
     18.5700	  634.00	  637.15	-2139.15	  498.78
     18.6700	  628.00	  636.43	-2144.43	  498.06
     18.7700	  671.00	  635.71	-2100.71	  497.34
     18.8700	  639.00	  635.00	-2132.00	  496.64
     18.9700	  669.00	  634.30	-2101.30	  495.94
     19.0700	  612.00	  634.82	-2158.82	  495.25
     19.1700	  601.00	  636.15	-2171.15	  494.57
     19.2700	  663.00	  635.55	-2108.55	  493.89
     19.3700	  617.00	  634.95	-2153.95	  493.22
     19.4700	  665.00	  634.36	-2105.36	  492.56
     19.5700	  610.00	  633.78	-2159.78	  491.90
     19.6700	  632.00	  633.21	-2137.21	  491.25
     19.7700	  600.00	  632.65	-2168.65	  490.61
     19.8700	  656.00	  632.10	-2112.10	  489.97
     19.9700	  610.00	  631.56	-2157.56	  489.34
     20.0700	  632.00	  631.09	-2135.09	  488.72
     20.1700	  584.00	  630.57	-2182.57	  488.11
     20.2700	  602.00	  630.06	-2164.06	  487.50
     20.3700	  638.00	  629.57	-2127.57	  486.89
     20.4700	  597.00	  629.08	-2168.08	  486.30
     20.5700	  612.00	  628.61	-2152.61	  485.71
     20.6700	  606.00	  628.14	-2158.15	  485.13
     20.7700	  618.00	  627.69	-2145.69	  484.55
     20.8700	  640.00	  627.25	-2123.25	  483.98
     20.9700	  609.00	  626.83	-2153.83	  483.42
     21.0700	  639.00	  626.41	-2123.41	  482.86
     21.1700	  624.00	  626.01	-2138.01	  482.31
     21.2700	  630.00	  625.62	-2131.62	  481.76
     21.3700	  632.00	  625.25	-2129.25	  481.22
     21.4700	  676.00	  624.88	-2084.88	  480.69
     21.5700	  640.00	  624.54	-2120.54	  480.16
     21.6700	  647.00	  624.20	-2113.20	  479.64
     21.7700	  667.00	  623.89	-2092.89	  479.13
     21.8700	  645.00	  623.59	-2114.59	  478.62
     21.9700	  586.00	  623.30	-2173.30	  478.11
     22.0700	  598.00	  623.04	-2161.04	  477.62
     22.1700	  626.00	  622.79	-2132.79	  477.13
     22.2700	  600.00	  622.78	-2158.78	  476.64
     22.3700	  612.00	  622.57	-2146.57	  476.16
     22.4700	  587.00	  622.40	-2171.40	  475.69
     22.5700	  624.00	  622.24	-2134.24	  475.22
     22.6700	  632.00	  622.11	-2126.11	  474.76
     22.7700	  617.00	  622.01	-2141.01	  474.30
     22.8700	  622.00	  621.94	-2135.94	  473.85
     22.9700	  650.00	  621.91	-2107.91	  473.40
     23.0700	  651.00	  621.91	-2106.91	  472.96
     23.1700	  657.00	  621.96	-2100.96	  472.53
     23.2700	  629.00	  622.06	-2129.06	  472.10
     23.3700	  669.00	  622.21	-2089.21	  471.67
     23.4700	  653.00	  622.43	-2105.43	  471.26
     23.5700	  650.00	  622.73	-2108.73	  470.84
     23.6700	  656.00	  623.12	-2103.12	  470.44
     23.7700	  638.00	  623.64	-2121.64	  470.03
     23.8700	  616.00	  624.32	-2144.32	  469.64
     23.9700	  610.00	  625.24	-2151.24	  469.24
     24.0700	  662.00	  626.50	-2100.50	  468.86
     24.1700	  655.00	  628.28	-2109.28	  468.47
     24.2700	  647.00	  630.84	-2119.84	  468.10
     24.3700	  651.00	  634.54	-2119.54	  467.72
     24.4700	  672.00	  639.74	-2103.74	  467.36
     24.5700	  649.00	  646.74	-2133.74	  467.00
     24.6700	  666.00	  655.52	-2125.52	  466.64
     24.7700	  718.00	  665.54	-2083.54	  466.29
     24.8700	  723.00	  675.44	-2088.44	  465.94
     24.9700	  683.00	  682.96	-2135.96	  465.60
     25.0700	  749.00	  684.94	-2071.94	  465.26
     25.1700	  695.00	  679.94	-2120.94	  464.93
     25.2700	  696.00	  670.37	-2110.37	  464.60
     25.3700	  678.00	  660.53	-2118.53	  464.28
     25.4700	  668.00	  652.80	-2120.80	  463.96
     25.5700	  596.00	  647.74	-2187.74	  463.64
     25.6700	  638.00	  645.02	-2143.02	  463.33
     25.7700	  693.00	  644.09	-2087.09	  463.03
     25.8700	  674.00	  644.46	-2106.46	  462.73
     25.9700	  668.00	  645.74	-2113.74	  462.43
     26.0700	  672.00	  647.73	-2111.73	  462.14
     26.1700	  621.00	  650.35	-2165.35	  461.85
     26.2700	  680.00	  653.57	-2109.57	  461.57
     26.3700	  655.00	  657.46	-2138.46	  461.29
     26.4700	  648.00	  662.07	-2150.07	  461.02
     26.5700	  669.00	  667.54	-2134.54	  460.75
     26.6700	  726.00	  674.01	-2084.01	  460.48
     26.7700	  664.00	  681.70	-2153.70	  460.22
     26.8700	  637.00	  690.89	-2189.89	  459.96
     26.9700	  688.00	  701.96	-2149.96	  459.71
     27.0700	  675.00	  715.42	-2176.42	  459.46
     27.1700	  706.00	  731.98	-2161.98	  459.22
     27.2700	  683.00	  752.71	-2205.71	  458.98
     27.3700	  688.00	  779.23	-2227.23	  458.74
     27.4700	  754.00	  814.58	-2196.58	  458.51
     27.5700	  807.00	  865.18	-2194.18	  458.28
     27.6700	  776.00	  945.36	-2305.36	  458.05
     27.7700	  929.00	 1084.90	-2291.90	  457.83
     27.8700	 1047.00	 1338.28	-2427.28	  457.62
     27.9700	 1340.00	 1790.23	-2586.23	  457.40
     28.0700	 2026.00	 2544.76	-2654.76	  457.19
     28.1700	 3192.00	 3680.30	-2624.30	  456.99
     28.2700	 5303.00	 5155.38	-1988.38	  456.79
     28.3700	 7598.00	 6676.36	-1214.36	  456.59
     28.4700	 8544.00	 7641.86	-1233.86	  456.40
     28.5700	 8076.00	 7410.08	-1470.08	  456.20
     28.6700	 6176.00	 6117.50	-2077.50	  456.02
     28.7700	 4460.00	 4742.08	-2418.08	  455.83
     28.8700	 3591.00	 3970.73	-2515.73	  455.65
     28.9700	 3887.00	 3888.54	-2137.54	  455.48
     29.0700	 4435.00	 4198.40	-1899.40	  455.31
     29.1700	 4913.00	 4439.10	-1662.10	  455.14
     29.2700	 4465.00	 4196.67	-1867.67	  454.97
     29.3700	 3448.00	 3442.97	-2130.97	  454.81
     29.4700	 2409.00	 2554.91	-2281.91	  454.65
     29.5700	 1625.00	 1834.11	-2345.11	  454.49
     29.6700	 1252.00	 1359.85	-2243.85	  454.34
     29.7700	 1052.00	 1088.60	-2172.60	  454.19
     29.8700	  945.00	  943.41	-2134.41	  454.05
     29.9700	  863.00	  863.08	-2136.08	  453.90
     30.0700	  817.00	  813.39	-2132.39	  453.76
     30.1700	  813.00	  779.03	-2102.03	  453.63
     30.2700	  756.00	  753.74	-2133.74	  453.50
     30.3700	  692.00	  734.94	-2178.94	  453.37
     30.4700	  731.00	  721.61	-2126.61	  453.24
     30.5700	  752.00	  713.76	-2097.76	  453.12
     30.6700	  708.00	  712.26	-2140.26	  452.99
     30.7700	  750.00	  718.44	-2104.44	  452.88
     30.8700	  726.00	  733.05	-2143.05	  452.76
     30.9700	  797.00	  754.63	-2093.63	  452.65
     31.0700	  744.00	  777.99	-2169.99	  452.54
     31.1700	  830.00	  793.63	-2099.63	  452.44
     31.2700	  781.00	  790.12	-2145.12	  452.33
     31.3700	  788.00	  764.40	-2112.40	  452.23
     31.4700	  717.00	  728.21	-2147.21	  452.14
     31.5700	  699.00	  694.79	-2131.79	  452.04
     31.6700	  712.00	  669.73	-2093.73	  451.95
     31.7700	  659.00	  653.17	-2130.17	  451.86
     31.8700	  659.00	  642.94	-2119.94	  451.78
     31.9700	  635.00	  636.66	-2137.66	  451.69
     32.0700	  666.00	  632.56	-2102.56	  451.61
     32.1700	  665.00	  629.66	-2100.66	  451.53
     32.2700	  622.00	  627.49	-2141.49	  451.46
     32.3700	  713.00	  625.85	-2048.85	  451.38
     32.4700	  730.00	  624.65	-2030.65	  451.31
     32.5700	  645.00	  623.86	-2114.86	  451.25
     32.6700	  642.00	  623.42	-2117.42	  451.18
     32.7700	  627.00	  623.37	-2132.37	  451.12
     32.8700	  622.00	  623.72	-2137.72	  451.06
     32.9700	  654.00	  624.55	-2106.55	  451.00
     33.0700	  636.00	  625.95	-2125.95	  450.94
     33.1700	  638.00	  628.07	-2126.07	  450.89
     33.2700	  651.00	  631.19	-2116.19	  450.84
     33.3700	  597.00	  635.83	-2174.83	  450.79
     33.4700	  668.00	  642.99	-2110.99	  450.75
     33.5700	  640.00	  654.60	-2150.60	  450.70
     33.6700	  646.00	  674.01	-2164.01	  450.66
     33.7700	  728.00	  706.33	-2114.33	  450.62
     33.8700	  793.00	  757.84	-2100.84	  450.58
     33.9700	  845.00	  833.41	-2124.41	  450.55
     34.0700	  936.00	  931.70	-2131.70	  450.52
     34.1700	 1102.00	 1039.82	-2073.82	  450.49
     34.2700	 1253.00	 1130.33	-2013.33	  450.46
     34.3700	 1277.00	 1165.23	-2024.23	  450.43
     34.4700	 1221.00	 1120.08	-2035.08	  450.41
     34.5700	 1084.00	 1016.13	-2068.13	  450.38
     34.6700	  947.00	  899.97	-2088.97	  450.36
     34.7700	  781.00	  802.02	-2157.02	  450.34
     34.8700	  722.00	  731.46	-2145.46	  450.33
     34.9700	  757.00	  685.87	-2064.87	  450.31
     35.0700	  713.00	  658.40	-2081.40	  450.30
     35.1700	  709.00	  642.14	-2069.14	  450.29
     35.2700	  751.00	  632.14	-2017.14	  450.28
     35.3700	  651.00	  625.48	-2110.48	  450.28
     35.4700	  644.00	  620.68	-2112.68	  450.27
     35.5700	  655.00	  617.02	-2098.02	  450.27
     35.6700	  618.00	  614.14	-2132.14	  450.27
     35.7700	  636.00	  611.84	-2111.84	  450.27
     35.8700	  641.00	  609.97	-2104.97	  450.27
     35.9700	  622.00	  608.51	-2122.51	  450.27
     36.0700	  634.00	  607.28	-2109.28	  450.28
     36.1700	  610.00	  606.28	-2132.28	  450.29
     36.2700	  618.00	  605.49	-2123.49	  450.29
     36.3700	  620.00	  604.87	-2120.87	  450.30
     36.4700	  576.00	  604.41	-2164.41	  450.32
     36.5700	  621.00	  604.11	-2119.11	  450.33
     36.6700	  635.00	  604.17	-2105.17	  450.35
     36.7700	  620.00	  604.19	-2120.19	  450.36
     36.8700	  626.00	  604.38	-2114.38	  450.38
     36.9700	  619.00	  604.78	-2121.78	  450.40
     37.0700	  589.00	  605.45	-2152.45	  450.42
     37.1700	  579.00	  606.45	-2163.45	  450.44
     37.2700	  628.00	  608.47	-2116.47	  450.47
     37.3700	  631.00	  610.73	-2115.73	  450.49
     37.4700	  585.00	  614.17	-2165.17	  450.52
     37.5700	  649.00	  619.50	-2106.50	  450.55
     37.6700	  618.00	  627.79	-2145.79	  450.58
     37.7700	  639.00	  640.45	-2137.45	  450.61
     37.8700	  648.00	  658.89	-2146.89	  450.64
     37.9700	  703.00	  683.90	-2116.90	  450.68
     38.0700	  691.00	  712.60	-2157.60	  450.71
     38.1700	  710.00	  745.06	-2171.06	  450.75
     38.2700	  786.00	  772.23	-2122.23	  450.79
     38.3700	  755.00	  784.23	-2165.23	  450.83
     38.4700	  769.00	  773.73	-2140.73	  450.87
     38.5700	  747.00	  744.39	-2133.39	  450.91
     38.6700	  685.00	  708.33	-2159.33	  450.95
     38.7700	  653.00	  675.37	-2158.37	  450.99
     38.8700	  664.00	  649.68	-2121.68	  451.04
     38.9700	  594.00	  631.68	-2173.68	  451.08
     39.0700	  603.00	  620.01	-2153.01	  451.13
     39.1700	  601.00	  612.78	-2147.78	  451.18
     39.2700	  617.00	  608.31	-2127.31	  451.23
     39.3700	  580.00	  605.44	-2161.44	  451.28
     39.4700	  624.00	  603.46	-2115.46	  451.33
     39.5700	  604.00	  600.87	-2132.87	  451.38
     39.6700	  592.00	  599.78	-2143.78	  451.43
     39.7700	  626.00	  598.94	-2108.94	  451.49
     39.8700	  595.00	  598.27	-2139.27	  451.54
     39.9700	  655.00	  597.74	-2078.74	  451.60
     40.0700	  570.00	  597.32	-2163.31	  451.65
     40.1700	  570.00	  596.99	-2162.99	  451.71
     40.2700	  625.00	  596.73	-2107.73	  451.77
     40.3700	  607.00	  596.54	-2125.54	  451.83
     40.4700	  575.00	  596.41	-2157.41	  451.89
     40.5700	  593.00	  596.32	-2139.32	  451.95
     40.6700	  563.00	  596.83	-2169.83	  452.01
     40.7700	  569.00	  596.85	-2163.85	  452.07
