MSG Master    CELL:    5.88795   5.88795  23.14358   90.0000   90.0000  120.0000   SPGR: P 63/m m c             TEMP:    624.65
  2   1280     2.52000     0.00000    -0.08994     0.00000     0.00000    0
    96    96     0     0     2
       0.00000      10.00000
     125.00000     130.00000
 2Theta	Yobs	Ycal	Yobs-Ycal	Backg	Posr	(hkl)	K
      0.7700	    0.00	  811.30	-1906.84	  683.76
      0.8700	    0.00	  809.68	-1906.84	  682.13
      0.9700	   40.00	  808.06	-1906.84	  680.52
      1.0700	   49.00	  806.46	-1906.84	  678.91
      1.1700	   52.00	  804.85	-1906.84	  677.31
      1.2700	   50.00	  803.26	-1906.84	  675.72
      1.3700	   43.00	  801.67	-1906.84	  674.13
      1.4700	  107.00	  800.10	-1906.84	  672.55
      1.5700	  304.00	  798.52	-1906.84	  670.98
      1.6700	  452.00	  796.96	-1906.84	  669.41
      1.7700	  616.00	  795.40	-1906.84	  667.86
      1.8700	  644.00	  793.85	-1906.84	  666.30
      1.9700	  716.00	  792.30	-1906.84	  664.76
      2.0700	  768.00	  790.76	-1906.84	  663.22
      2.1700	  741.00	  789.23	-1906.84	  661.69
      2.2700	  763.00	  787.71	-1906.84	  660.16
      2.3700	  775.00	  786.19	-1906.84	  658.65
      2.4700	  750.00	  784.68	-1906.84	  657.13
      2.5700	  680.00	  783.17	-1906.84	  655.63
      2.6700	  643.00	  781.67	-1906.84	  654.13
      2.7700	  670.00	  780.18	-1906.84	  652.64
      2.8700	  689.00	  778.70	-1906.84	  651.16
      2.9700	  596.00	  777.22	-1906.84	  649.68
      3.0700	  641.00	  775.75	-1906.84	  648.21
      3.1700	  596.00	  774.29	-1906.84	  646.74
      3.2700	  695.00	  772.83	-1906.84	  645.29
      3.3700	  900.00	  771.38	-1906.84	  643.83
      3.4700	 1070.00	  769.93	-1906.84	  642.39
      3.5700	 1203.00	  768.49	-1906.84	  640.95
      3.6700	 1307.00	  767.06	-1906.84	  639.52
      3.7700	 1440.00	  765.64	-1906.84	  638.09
      3.8700	 1530.00	  764.22	-1906.84	  636.68
      3.9700	 1582.00	  762.81	-1906.84	  635.26
      4.0700	 1612.00	  761.40	-1906.84	  633.86
      4.1700	 1601.00	  760.00	-1906.84	  632.46
      4.2700	 1671.00	  758.61	-1906.84	  631.07
      4.3700	 1608.00	  757.22	-1906.84	  629.68
      4.4700	 1525.00	  755.84	-1906.84	  628.30
      4.5700	 1513.00	  754.47	-1906.84	  626.93
      4.6700	 1482.00	  753.10	-1906.84	  625.56
      4.7700	 1466.00	  751.74	-1906.84	  624.20
      4.8700	 1362.00	  750.39	-1906.84	  622.85
      4.9700	 1330.00	  749.04	-1906.84	  621.50
      5.0700	 1234.00	  747.70	-1906.84	  620.16
      5.1700	 1248.00	  746.37	-1906.84	  618.82
      5.2700	 1195.00	  745.04	-1906.84	  617.49
      5.3700	 1211.00	  743.71	-1906.84	  616.17
      5.4700	 1245.00	  742.40	-1906.84	  614.86
      5.5700	 1092.00	  741.09	-1906.84	  613.55
      5.6700	 1117.00	  739.78	-1906.84	  612.24
      5.7700	 1101.00	  738.49	-1906.84	  610.94
      5.8700	 1125.00	  737.20	-1906.84	  609.65
      5.9700	 1089.00	  735.91	-1906.84	  608.37
      6.0700	 1036.00	  734.63	-1906.84	  607.09
      6.1700	  996.00	  733.36	-1906.84	  605.81
      6.2700	  990.00	  732.09	-1906.84	  604.55
      6.3700	  989.00	  730.83	-1906.84	  603.29
      6.4700	  982.00	  729.58	-1906.84	  602.03
      6.5700	  955.00	  728.33	-1906.84	  600.78
      6.6700	  962.00	  727.08	-1906.84	  599.54
      6.7700	  918.00	  725.85	-1906.84	  598.30
      6.8700	  895.00	  724.62	-1906.84	  597.07
      6.9700	  873.00	  723.39	-1906.84	  595.85
      7.0700	  836.00	  722.17	-1906.84	  594.63
      7.1700	  797.00	  720.96	-1906.84	  593.42
      7.2700	  882.00	  719.76	-1906.84	  592.21
      7.3700	  828.00	  718.55	-1906.84	  591.01
      7.4700	  818.00	  717.36	-1906.84	  589.82
      7.5700	  807.00	  716.17	-1906.84	  588.63
      7.6700	  812.00	  714.99	-1906.84	  587.45
      7.7700	  818.00	  713.81	-1906.84	  586.27
      7.8700	  747.00	  712.64	-1906.84	  585.10
      7.9700	  785.00	  711.47	-1906.84	  583.93
      8.0700	  771.00	  710.32	-1906.84	  582.77
      8.1700	  787.00	  709.16	-1906.84	  581.62
      8.2700	  752.00	  708.01	-1906.84	  580.47
      8.3700	  747.00	  706.87	-1906.84	  579.33
      8.4700	  770.00	  705.74	-1906.84	  578.19
      8.5700	  748.00	  704.60	-1906.84	  577.06
      8.6700	  746.00	  703.48	-1906.84	  575.94
      8.7700	  726.00	  702.36	-1906.84	  574.82
      8.8700	  733.00	  701.25	-1906.84	  573.70
      8.9700	  753.00	  700.14	-1906.84	  572.60
      9.0700	  762.00	  699.04	-1906.84	  571.49
      9.1700	  733.00	  697.94	-1906.84	  570.40
      9.2700	  708.00	  696.85	-1906.84	  569.31
      9.3700	  674.00	  695.76	-1906.84	  568.22
      9.4700	  735.00	  694.69	-1906.84	  567.14
      9.5700	  691.00	  693.61	-1906.84	  566.07
      9.6700	  718.00	  692.54	-1906.84	  565.00
      9.7700	  772.00	  691.48	-1906.84	  563.94
      9.8700	  735.00	  690.42	-1906.84	  562.88
      9.9700	  662.00	  689.37	-1906.84	  561.83
     10.0700	  686.00	  690.45	-1911.28	  560.78
     10.1700	  667.00	  689.64	-1929.48	  559.74
     10.2700	  748.00	  688.89	-1847.72	  558.71
     10.3700	  700.00	  688.20	-1895.04	  557.68
     10.4700	  714.00	  687.62	-1880.46	  556.65
     10.5700	  646.00	  687.18	-1948.02	  555.63
     10.6700	  666.00	  686.96	-1927.79	  554.62
     10.7700	  714.00	  687.03	-1879.87	  553.61
     10.8700	  706.00	  687.50	-1888.34	  552.61
     10.9700	  726.00	  688.46	-1869.30	  551.61
     11.0700	  700.00	  689.93	-1896.77	  550.62
     11.1700	  709.00	  691.94	-1889.78	  549.63
     11.2700	  734.00	  694.50	-1867.34	  548.65
     11.3700	  689.00	  697.68	-1915.51	  547.67
     11.4700	  674.00	  701.57	-1934.41	  546.70
     11.5700	  731.00	  706.36	-1882.19	  545.74
     11.6700	  761.00	  712.28	-1858.12	  544.77
     11.7700	  735.00	  719.68	-1891.52	  543.82
     11.8700	  774.00	  728.83	-1861.66	  542.87
     11.9700	  743.00	  739.71	-1903.55	  541.92
     12.0700	  808.00	  751.56	-1850.40	  540.98
     12.1700	  794.00	  762.21	-1875.05	  540.05
     12.2700	  792.00	  767.60	-1882.44	  539.12
     12.3700	  813.00	  762.69	-1856.53	  538.20
     12.4700	  747.00	  746.37	-1906.21	  537.28
     12.5700	  700.00	  725.01	-1931.85	  536.36
     12.6700	  726.00	  705.72	-1886.56	  535.45
     12.7700	  700.00	  691.19	-1898.02	  534.55
     12.8700	  688.00	  681.23	-1900.07	  533.65
     12.9700	  660.00	  674.63	-1921.47	  532.76
     13.0700	  673.00	  670.21	-1904.04	  531.87
     13.1700	  646.00	  667.06	-1927.89	  530.99
     13.2700	  636.00	  664.63	-1935.46	  530.11
     13.3700	  630.00	  662.62	-1939.46	  529.23
     13.4700	  596.00	  660.89	-1971.73	  528.36
     13.5700	  661.00	  659.35	-1905.19	  527.50
     13.6700	  665.00	  657.95	-1899.78	  526.64
     13.7700	  652.00	  656.65	-1911.48	  525.79
     13.8700	  620.00	  655.43	-1942.27	  524.94
     13.9700	  655.00	  654.28	-1906.12	  524.09
     14.0700	  686.00	  653.18	-1874.02	  523.25
     14.1700	  635.00	  652.13	-1923.96	  522.42
     14.2700	  598.00	  651.11	-1959.94	  521.59
     14.3700	  618.00	  650.12	-1938.96	  520.77
     14.4700	  623.00	  649.16	-1932.99	  519.95
     14.5700	  642.00	  648.22	-1913.05	  519.13
     14.6700	  609.00	  647.30	-1945.13	  518.32
     14.7700	  650.00	  646.39	-1903.23	  517.51
     14.8700	  619.00	  645.51	-1933.34	  516.71
     14.9700	  657.00	  644.63	-1894.47	  515.92
     15.0700	  628.00	  643.77	-1922.61	  515.12
     15.1700	  606.00	  642.92	-1943.76	  514.34
     15.2700	  607.00	  642.08	-1941.92	  513.56
     15.3700	  651.00	  641.26	-1897.09	  512.78
     15.4700	  639.00	  640.44	-1908.27	  512.00
     15.5700	  585.00	  639.63	-1961.46	  511.24
     15.6700	  645.00	  638.83	-1900.66	  510.47
     15.7700	  605.00	  638.03	-1939.87	  509.71
     15.8700	  617.00	  637.25	-1927.08	  508.96
     15.9700	  629.00	  636.47	-1914.30	  508.21
     16.0700	  628.00	  635.69	-1914.53	  507.46
     16.1700	  639.00	  634.93	-1902.77	  506.72
     16.2700	  664.00	  634.17	-1877.01	  505.99
     16.3700	  654.00	  633.42	-1886.25	  505.25
     16.4700	  636.00	  632.67	-1903.51	  504.53
     16.5700	  622.00	  631.93	-1916.77	  503.80
     16.6700	  609.00	  631.19	-1929.03	  503.09
     16.7700	  588.00	  630.46	-1949.30	  502.37
     16.8700	  656.00	  629.74	-1880.58	  501.66
     16.9700	  671.00	  629.02	-1864.86	  500.96
     17.0700	  658.00	  628.31	-1877.15	  500.26
     17.1700	  646.00	  627.60	-1888.44	  499.56
     17.2700	  659.00	  626.90	-1874.74	  498.87
     17.3700	  638.00	  626.20	-1895.04	  498.18
     17.4700	  642.00	  625.51	-1890.35	  497.50
     17.5700	  644.00	  624.82	-1887.66	  496.82
     17.6700	  618.00	  624.14	-1912.98	  496.14
     17.7700	  617.00	  623.46	-1913.30	  495.47
     17.8700	  586.00	  622.79	-1943.63	  494.81
     17.9700	  618.00	  622.12	-1910.96	  494.15
     18.0700	  614.00	  621.46	-1914.30	  493.49
     18.1700	  625.00	  620.80	-1902.64	  492.84
     18.2700	  645.00	  620.15	-1881.99	  492.19
     18.3700	  609.00	  619.50	-1917.34	  491.54
     18.4700	  623.00	  618.86	-1902.69	  490.90
     18.5700	  573.00	  618.22	-1952.05	  490.26
     18.6700	  617.00	  618.94	-1908.78	  489.63
     18.7700	  620.00	  619.12	-1905.96	  489.00
     18.8700	  602.00	  618.54	-1923.38	  488.38
     18.9700	  611.00	  617.96	-1913.80	  487.76
     19.0700	  652.00	  617.40	-1872.23	  487.14
     19.1700	  635.00	  616.83	-1888.67	  486.53
     19.2700	  583.00	  616.28	-1940.11	  485.92
     19.3700	  604.00	  615.72	-1918.56	  485.32
     19.4700	  632.00	  615.18	-1890.02	  484.72
     19.5700	  561.00	  614.64	-1960.48	  484.13
     19.6700	  616.00	  614.11	-1904.95	  483.53
     19.7700	  588.00	  613.58	-1932.42	  482.95
     19.8700	  599.00	  613.06	-1920.90	  482.36
     19.9700	  610.00	  612.60	-1909.44	  481.78
     20.0700	  620.00	  612.10	-1898.94	  481.21
     20.1700	  628.00	  611.60	-1890.44	  480.64
     20.2700	  623.00	  611.11	-1894.95	  480.07
     20.3700	  580.00	  610.63	-1937.46	  479.50
     20.4700	  597.00	  610.15	-1919.99	  478.94
     20.5700	  611.00	  609.68	-1905.52	  478.39
     20.6700	  597.00	  609.22	-1919.06	  477.84
     20.7700	  613.00	  608.77	-1902.60	  477.29
     20.8700	  613.00	  608.32	-1902.16	  476.74
     20.9700	  565.00	  607.88	-1949.72	  476.20
     21.0700	  567.00	  607.45	-1947.29	  475.66
     21.1700	  645.00	  607.03	-1868.87	  475.13
     21.2700	  654.00	  606.62	-1859.46	  474.60
     21.3700	  612.00	  606.22	-1901.06	  474.08
     21.4700	  642.00	  605.83	-1870.67	  473.55
     21.5700	  623.00	  605.45	-1889.29	  473.04
     21.6700	  601.00	  605.08	-1910.92	  472.52
     21.7700	  597.00	  604.72	-1914.56	  472.01
     21.8700	  605.00	  604.38	-1906.22	  471.50
     21.9700	  611.00	  604.04	-1899.88	  471.00
     22.0700	  584.00	  603.72	-1926.56	  470.50
     22.1700	  623.00	  603.42	-1887.26	  470.00
     22.2700	  608.00	  603.32	-1902.15	  469.51
     22.3700	  605.00	  603.05	-1904.88	  469.02
     22.4700	  573.00	  602.79	-1936.63	  468.54
     22.5700	  605.00	  602.56	-1904.40	  468.06
     22.6700	  597.00	  602.35	-1912.18	  467.58
     22.7700	  577.00	  602.16	-1931.99	  467.10
     22.8700	  648.00	  601.99	-1860.83	  466.63
     22.9700	  584.00	  601.86	-1924.70	  466.16
     23.0700	  592.00	  601.76	-1916.59	  465.70
     23.1700	  602.00	  601.69	-1906.53	  465.24
     23.2700	  615.00	  601.67	-1893.51	  464.78
     23.3700	  601.00	  601.70	-1907.54	  464.33
     23.4700	  605.00	  601.79	-1903.63	  463.88
     23.5700	  579.00	  601.95	-1929.79	  463.43
     23.6700	  654.00	  602.21	-1855.05	  462.99
     23.7700	  619.00	  602.60	-1890.44	  462.55
     23.8700	  607.00	  603.17	-1903.00	  462.11
     23.9700	  635.00	  604.00	-1875.84	  461.68
     24.0700	  598.00	  605.24	-1914.08	  461.25
     24.1700	  601.00	  607.08	-1912.92	  460.82
     24.2700	  609.00	  609.95	-1907.79	  460.40
     24.3700	  607.00	  614.23	-1914.07	  459.98
     24.4700	  669.00	  620.34	-1858.18	  459.56
     24.5700	  668.00	  628.47	-1867.31	  459.15
     24.6700	  638.00	  638.38	-1907.22	  458.74
     24.7700	  713.00	  649.07	-1842.91	  458.33
     24.8700	  739.00	  658.40	-1826.23	  457.93
     24.9700	  668.00	  662.97	-1901.81	  457.53
     25.0700	  679.00	  659.76	-1887.60	  457.13
     25.1700	  651.00	  649.87	-1905.71	  456.74
     25.2700	  623.00	  638.17	-1922.01	  456.35
     25.3700	  661.00	  628.37	-1874.21	  455.96
     25.4700	  613.00	  621.51	-1915.34	  455.58
     25.5700	  679.00	  617.38	-1845.22	  455.20
     25.6700	  616.00	  615.33	-1906.17	  454.82
     25.7700	  653.00	  614.70	-1868.53	  454.44
     25.8700	  663.00	  614.98	-1858.82	  454.07
     25.9700	  652.00	  615.91	-1870.75	  453.71
     26.0700	  643.00	  617.35	-1881.19	  453.34
     26.1700	  657.00	  619.26	-1869.10	  452.98
     26.2700	  646.00	  621.65	-1882.48	  452.62
     26.3700	  605.00	  624.55	-1926.39	  452.26
     26.4700	  670.00	  628.04	-1864.88	  451.91
     26.5700	  617.00	  632.22	-1922.06	  451.56
     26.6700	  600.00	  637.22	-1944.06	  451.21
     26.7700	  661.00	  643.21	-1889.05	  450.87
     26.8700	  659.00	  650.44	-1898.28	  450.53
     26.9700	  642.00	  659.23	-1924.07	  450.19
     27.0700	  672.00	  670.03	-1904.86	  449.85
     27.1700	  656.00	  683.46	-1934.30	  449.52
     27.2700	  672.00	  700.51	-1935.34	  449.19
     27.3700	  707.00	  722.81	-1922.65	  448.86
     27.4700	  677.00	  753.59	-1983.43	  448.54
     27.5700	  744.00	  799.62	-1962.46	  448.22
     27.6700	  762.00	  874.73	-2019.57	  447.90
     27.7700	  831.00	 1004.65	-2080.49	  447.59
     27.8700	  974.00	 1231.29	-2164.13	  447.28
     27.9700	 1238.00	 1610.44	-2279.28	  446.97
     28.0700	 1830.00	 2193.20	-2270.03	  446.66
     28.1700	 2862.00	 2985.45	-2030.29	  446.36
     28.2700	 4103.00	 3888.83	-1692.66	  446.06
     28.3700	 5241.00	 4649.46	-1315.29	  445.76
     28.4700	 5558.00	 4892.34	-1241.18	  445.46
     28.5700	 4803.00	 4423.66	-1527.50	  445.17
     28.6700	 3460.00	 3610.15	-2056.99	  444.88
     28.7700	 2688.00	 2971.67	-2190.51	  444.59
     28.8700	 2502.00	 2717.55	-2122.39	  444.31
     28.9700	 2737.00	 2782.37	-1952.20	  444.03
     29.0700	 3201.00	 2945.85	-1651.69	  443.75
     29.1700	 3247.00	 2938.13	-1597.97	  443.47
     29.2700	 2585.00	 2606.36	-1928.20	  443.20
     29.3700	 2077.00	 2078.67	-1908.51	  442.93
     29.4700	 1451.00	 1578.91	-2034.75	  442.66
     29.5700	 1146.00	 1212.46	-1973.29	  442.39
     29.6700	  959.00	  983.51	-1931.35	  442.13
     29.7700	  897.00	  854.06	-1863.90	  441.87
     29.8700	  849.00	  782.40	-1840.23	  441.61
     29.9700	  820.00	  740.01	-1826.85	  441.35
     30.0700	  700.00	  712.10	-1918.94	  441.10
     30.1700	  735.00	  692.18	-1864.02	  440.85
     30.2700	  697.00	  677.57	-1887.40	  440.60
     30.3700	  673.00	  667.27	-1901.10	  440.36
     30.4700	  683.00	  661.22	-1885.06	  440.11
     30.5700	  651.00	  660.16	-1916.00	  439.87
     30.6700	  673.00	  665.39	-1899.23	  439.64
     30.7700	  669.00	  678.12	-1915.96	  439.40
     30.8700	  705.00	  698.07	-1899.91	  439.17
     30.9700	  797.00	  721.97	-1831.80	  438.94
     31.0700	  739.00	  742.51	-1910.34	  438.71
     31.1700	  734.00	  748.94	-1921.78	  438.48
     31.2700	  663.00	  733.49	-1977.33	  438.26
     31.3700	  774.00	  702.06	-1834.89	  438.04
     31.4700	  709.00	  668.58	-1866.42	  437.82
     31.5700	  692.00	  641.55	-1856.39	  437.60
     31.6700	  669.00	  622.87	-1860.71	  437.39
     31.7700	  653.00	  611.16	-1864.99	  437.18
     31.8700	  619.00	  604.08	-1891.92	  436.97
     31.9700	  619.00	  599.68	-1887.52	  436.76
     32.0700	  658.00	  596.72	-1845.56	  436.56
     32.1700	  638.00	  594.58	-1863.42	  436.35
     32.2700	  632.00	  592.98	-1867.82	  436.15
     32.3700	  604.00	  591.79	-1894.62	  435.96
     32.4700	  608.00	  590.95	-1889.79	  435.76
     32.5700	  619.00	  590.45	-1878.28	  435.57
     32.6700	  582.00	  590.27	-1915.11	  435.38
     32.7700	  579.00	  590.45	-1918.29	  435.19
     32.8700	  600.00	  591.05	-1897.89	  435.00
     32.9700	  596.00	  592.09	-1902.93	  434.82
     33.0700	  636.00	  593.71	-1864.54	  434.63
     33.1700	  617.00	  596.11	-1885.95	  434.45
     33.2700	  611.00	  599.66	-1895.50	  434.27
     33.3700	  621.00	  605.09	-1890.92	  434.10
     33.4700	  651.00	  613.79	-1869.63	  433.92
     33.5700	  632.00	  628.33	-1903.17	  433.75
     33.6700	  623.00	  652.90	-1936.74	  433.58
     33.7700	  622.00	  693.14	-1977.98	  433.42
     33.8700	  774.00	  754.51	-1887.34	  433.25
     33.9700	  821.00	  838.44	-1924.28	  433.09
     34.0700	  978.00	  937.07	-1865.91	  432.92
     34.1700	 1137.00	 1029.47	-1799.31	  432.76
     34.2700	 1165.00	 1082.28	-1824.12	  432.61
     34.3700	 1175.00	 1064.61	-1796.45	  432.45
     34.4700	  988.00	  981.32	-1900.16	  432.30
     34.5700	  892.00	  873.44	-1888.28	  432.15
     34.6700	  759.00	  776.24	-1924.08	  432.00
     34.7700	  690.00	  703.57	-1920.41	  431.85
     34.8700	  728.00	  655.52	-1834.36	  431.70
     34.9700	  702.00	  626.29	-1831.13	  431.56
     35.0700	  624.00	  609.11	-1891.95	  431.42
     35.1700	  664.00	  598.74	-1841.58	  431.28
     35.2700	  604.00	  591.99	-1894.83	  431.14
     35.3700	  585.00	  587.19	-1909.03	  431.00
     35.4700	  614.00	  583.55	-1876.39	  430.87
     35.5700	  585.00	  580.68	-1902.52	  430.74
     35.6700	  590.00	  578.37	-1895.21	  430.61
     35.7700	  585.00	  576.47	-1898.31	  430.48
     35.8700	  590.00	  574.91	-1891.74	  430.35
     35.9700	  570.00	  573.60	-1910.44	  430.23
     36.0700	  618.00	  572.51	-1861.35	  430.10
     36.1700	  577.00	  571.60	-1901.44	  429.98
     36.2700	  561.00	  570.85	-1916.69	  429.86
     36.3700	  558.00	  570.24	-1919.07	  429.74
     36.4700	  556.00	  569.75	-1920.59	  429.63
     36.5700	  587.00	  569.39	-1889.23	  429.51
     36.6700	  525.00	  569.16	-1951.00	  429.40
     36.7700	  567.00	  569.57	-1909.41	  429.29
     36.8700	  581.00	  569.63	-1895.47	  429.18
     36.9700	  545.00	  569.89	-1931.72	  429.07
     37.0700	  583.00	  570.59	-1894.42	  428.97
     37.1700	  553.00	  571.44	-1925.28	  428.86
     37.2700	  574.00	  572.84	-1905.68	  428.76
     37.3700	  575.00	  575.06	-1906.90	  428.66
     37.4700	  571.00	  578.64	-1914.47	  428.56
     37.5700	  596.00	  584.26	-1895.10	  428.46
     37.6700	  633.00	  592.87	-1866.71	  428.37
     37.7700	  629.00	  605.44	-1883.27	  428.27
     37.8700	  607.00	  622.50	-1922.34	  428.18
     37.9700	  633.00	  643.49	-1917.33	  428.09
     38.0700	  610.00	  666.12	-1962.96	  428.00
     38.1700	  662.00	  685.89	-1930.73	  427.91
     38.2700	  693.00	  696.30	-1910.13	  427.82
     38.3700	  642.00	  689.94	-1954.77	  427.74
     38.4700	  626.00	  670.28	-1951.11	  427.65
     38.5700	  629.00	  644.25	-1922.09	  427.57
     38.6700	  593.00	  619.71	-1933.54	  427.49
     38.7700	  583.00	  600.29	-1924.13	  427.41
     38.8700	  575.00	  586.62	-1918.45	  427.33
     38.9700	  586.00	  577.75	-1898.59	  427.26
     39.0700	  569.00	  572.28	-1910.11	  427.18
     39.1700	  571.00	  568.90	-1904.74	  427.11
     39.2700	  618.00	  566.73	-1855.57	  427.04
     39.3700	  546.00	  565.23	-1926.06	  426.97
     39.4700	  564.00	  564.11	-1906.94	  426.90
     39.5700	  574.00	  563.23	-1896.07	  426.83
     39.6700	  567.00	  562.53	-1902.37	  426.77
     39.7700	  582.00	  561.22	-1886.06	  426.70
     39.8700	  561.00	  560.76	-1906.60	  426.64
     39.9700	  542.00	  560.38	-1925.22	  426.57
     40.0700	  571.00	  560.07	-1895.91	  426.51
     40.1700	  595.00	  559.82	-1871.65	  426.45
     40.2700	  623.00	  559.61	-1843.44	  426.40
     40.3700	  601.00	  559.44	-1865.28	  426.34
     40.4700	  563.00	  559.31	-1903.15	  426.28
     40.5700	  587.00	  559.76	-1879.59	  426.23
     40.6700	  534.00	  559.71	-1932.55	  426.18
     40.7700	  551.00	  559.69	-1915.53	  426.13
