MSG Master    CELL:    5.87683   5.87683  23.07945   90.0000   90.0000  120.0000   SPGR: P 63/m m c             TEMP:    454.85
  2   1280     2.52000     0.00000    -0.08624     0.00000     0.00000    0
    95    95     0     0     2
       0.00000      10.00000
     125.00000     130.00000
 2Theta	Yobs	Ycal	Yobs-Ycal	Backg	Posr	(hkl)	K
      0.7700	    0.00	 1004.53	-2263.25	  865.62
      0.8700	    0.00	 1000.97	-2263.25	  862.06
      0.9700	   56.00	  997.43	-2263.25	  858.52
      1.0700	   44.00	  993.91	-2263.25	  855.00
      1.1700	   44.00	  990.42	-2263.25	  851.51
      1.2700	   34.00	  986.94	-2263.25	  848.03
      1.3700	   36.00	  983.49	-2263.25	  844.58
      1.4700	   88.00	  980.06	-2263.25	  841.15
      1.5700	  269.00	  976.66	-2263.25	  837.75
      1.6700	  455.00	  973.27	-2263.25	  834.36
      1.7700	  539.00	  969.91	-2263.25	  831.00
      1.8700	  602.00	  966.57	-2263.25	  827.66
      1.9700	  726.00	  963.25	-2263.25	  824.34
      2.0700	  771.00	  959.95	-2263.25	  821.04
      2.1700	  832.00	  956.67	-2263.25	  817.76
      2.2700	  707.00	  953.42	-2263.25	  814.51
      2.3700	  762.00	  950.18	-2263.25	  811.27
      2.4700	  659.00	  946.97	-2263.25	  808.06
      2.5700	  676.00	  943.78	-2263.25	  804.86
      2.6700	  696.00	  940.60	-2263.25	  801.69
      2.7700	  707.00	  937.45	-2263.25	  798.54
      2.8700	  640.00	  934.32	-2263.25	  795.41
      2.9700	  653.00	  931.21	-2263.25	  792.30
      3.0700	  658.00	  928.13	-2263.25	  789.21
      3.1700	  586.00	  925.06	-2263.25	  786.15
      3.2700	  692.00	  922.01	-2263.25	  783.10
      3.3700	  881.00	  918.98	-2263.25	  780.07
      3.4700	 1028.00	  915.97	-2263.25	  777.06
      3.5700	 1205.00	  912.99	-2263.25	  774.08
      3.6700	 1298.00	  910.02	-2263.25	  771.11
      3.7700	 1412.00	  907.07	-2263.25	  768.16
      3.8700	 1470.00	  904.15	-2263.25	  765.23
      3.9700	 1607.00	  901.24	-2263.25	  762.33
      4.0700	 1626.00	  898.35	-2263.25	  759.44
      4.1700	 1646.00	  895.48	-2263.25	  756.57
      4.2700	 1688.00	  892.63	-2263.25	  753.72
      4.3700	 1614.00	  889.80	-2263.25	  750.89
      4.4700	 1665.00	  886.99	-2263.25	  748.08
      4.5700	 1542.00	  884.20	-2263.25	  745.29
      4.6700	 1488.00	  881.43	-2263.25	  742.52
      4.7700	 1452.00	  878.68	-2263.25	  739.77
      4.8700	 1457.00	  875.95	-2263.25	  737.04
      4.9700	 1405.00	  873.23	-2263.25	  734.32
      5.0700	 1355.00	  870.54	-2263.25	  731.63
      5.1700	 1280.00	  867.86	-2263.25	  728.95
      5.2700	 1319.00	  865.20	-2263.25	  726.29
      5.3700	 1191.00	  862.56	-2263.25	  723.65
      5.4700	 1171.00	  859.94	-2263.25	  721.03
      5.5700	 1183.00	  857.34	-2263.25	  718.43
      5.6700	 1193.00	  854.76	-2263.25	  715.84
      5.7700	 1197.00	  852.19	-2263.25	  713.28
      5.8700	 1168.00	  849.64	-2263.25	  710.73
      5.9700	 1061.00	  847.11	-2263.25	  708.20
      6.0700	 1111.00	  844.60	-2263.25	  705.69
      6.1700	 1086.00	  842.11	-2263.25	  703.19
      6.2700	 1034.00	  839.63	-2263.25	  700.72
      6.3700	 1079.00	  837.17	-2263.25	  698.26
      6.4700	 1061.00	  834.73	-2263.25	  695.82
      6.5700	 1069.00	  832.31	-2263.25	  693.40
      6.6700	  977.00	  829.90	-2263.25	  690.99
      6.7700	  997.00	  827.51	-2263.25	  688.60
      6.8700	 1035.00	  825.14	-2263.25	  686.23
      6.9700	  962.00	  822.79	-2263.25	  683.88
      7.0700	  949.00	  820.45	-2263.25	  681.54
      7.1700	  905.00	  818.13	-2263.25	  679.22
      7.2700	  893.00	  815.83	-2263.25	  676.92
      7.3700	  934.00	  813.55	-2263.25	  674.63
      7.4700	  895.00	  811.28	-2263.25	  672.37
      7.5700	  857.00	  809.03	-2263.25	  670.11
      7.6700	  842.00	  806.79	-2263.25	  667.88
      7.7700	  839.00	  804.57	-2263.25	  665.66
      7.8700	  858.00	  802.37	-2263.25	  663.46
      7.9700	  804.00	  800.18	-2263.25	  661.27
      8.0700	  817.00	  798.02	-2263.25	  659.10
      8.1700	  832.00	  795.86	-2263.25	  656.95
      8.2700	  825.00	  793.73	-2263.25	  654.82
      8.3700	  805.00	  791.61	-2263.25	  652.69
      8.4700	  794.00	  789.50	-2263.25	  650.59
      8.5700	  832.00	  787.41	-2263.25	  648.50
      8.6700	  853.00	  785.34	-2263.25	  646.43
      8.7700	  798.00	  783.28	-2263.25	  644.37
      8.8700	  800.00	  781.24	-2263.25	  642.33
      8.9700	  789.00	  779.22	-2263.25	  640.31
      9.0700	  802.00	  777.21	-2263.25	  638.30
      9.1700	  777.00	  775.22	-2263.25	  636.30
      9.2700	  790.00	  773.24	-2263.25	  634.33
      9.3700	  732.00	  771.27	-2263.25	  632.36
      9.4700	  773.00	  769.33	-2263.25	  630.41
      9.5700	  767.00	  767.39	-2263.25	  628.48
      9.6700	  765.00	  765.48	-2263.25	  626.57
      9.7700	  727.00	  763.57	-2263.25	  624.66
      9.8700	  755.00	  761.69	-2263.25	  622.78
      9.9700	  730.00	  759.81	-2263.25	  620.90
     10.0700	  770.00	  760.12	-2253.37	  619.05
     10.1700	  773.00	  758.51	-2248.76	  617.20
     10.2700	  755.00	  756.96	-2265.21	  615.37
     10.3700	  715.00	  755.49	-2303.74	  613.56
     10.4700	  714.00	  754.12	-2303.37	  611.76
     10.5700	  786.00	  752.88	-2230.13	  609.98
     10.6700	  771.00	  751.84	-2244.09	  608.21
     10.7700	  736.00	  751.07	-2278.32	  606.45
     10.8700	  757.00	  750.66	-2256.91	  604.71
     10.9700	  776.00	  750.71	-2237.96	  602.98
     11.0700	  763.00	  751.27	-2251.52	  601.27
     11.1700	  763.00	  752.36	-2252.61	  599.57
     11.2700	  722.00	  754.01	-2295.26	  597.89
     11.3700	  727.00	  756.25	-2292.50	  596.22
     11.4700	  744.00	  759.18	-2278.43	  594.56
     11.5700	  776.00	  762.94	-2250.19	  592.92
     11.6700	  756.00	  767.72	-2274.97	  591.29
     11.7700	  799.00	  773.80	-2238.05	  589.67
     11.8700	  881.00	  781.44	-2163.69	  588.07
     11.9700	  830.00	  790.69	-2223.94	  586.48
     12.0700	  843.00	  801.07	-2221.32	  584.90
     12.1700	  800.00	  811.05	-2274.30	  583.34
     12.2700	  877.00	  817.60	-2203.85	  581.79
     12.3700	  845.00	  816.26	-2234.51	  580.26
     12.4700	  890.00	  804.13	-2177.38	  578.73
     12.5700	  770.00	  784.51	-2277.76	  577.22
     12.6700	  735.00	  764.43	-2292.68	  575.73
     12.7700	  691.00	  748.00	-2320.25	  574.24
     12.8700	  721.00	  735.94	-2278.19	  572.77
     12.9700	  672.00	  727.49	-2318.74	  571.31
     13.0700	  691.00	  721.60	-2293.85	  569.87
     13.1700	  663.00	  717.31	-2317.56	  568.44
     13.2700	  651.00	  713.97	-2326.22	  567.02
     13.3700	  667.00	  711.20	-2307.45	  565.61
     13.4700	  683.00	  708.78	-2289.03	  564.21
     13.5700	  751.00	  706.60	-2218.85	  562.83
     13.6700	  675.00	  704.60	-2292.85	  561.46
     13.7700	  685.00	  702.72	-2280.97	  560.10
     13.8700	  719.00	  700.95	-2245.20	  558.76
     13.9700	  667.00	  699.27	-2295.52	  557.42
     14.0700	  718.00	  697.65	-2242.90	  556.10
     14.1700	  693.00	  696.09	-2266.34	  554.79
     14.2700	  701.00	  694.57	-2256.82	  553.49
     14.3700	  711.00	  693.10	-2245.35	  552.21
     14.4700	  701.00	  691.66	-2253.91	  550.93
     14.5700	  719.00	  690.26	-2234.51	  549.67
     14.6700	  719.00	  688.89	-2233.14	  548.42
     14.7700	  656.00	  687.54	-2294.79	  547.18
     14.8700	  720.00	  686.21	-2229.46	  545.95
     14.9700	  731.00	  684.91	-2217.16	  544.74
     15.0700	  645.00	  683.63	-2301.88	  543.53
     15.1700	  658.00	  682.36	-2287.61	  542.34
     15.2700	  658.00	  681.12	-2286.37	  541.16
     15.3700	  650.00	  679.89	-2293.14	  539.99
     15.4700	  674.00	  678.68	-2267.93	  538.83
     15.5700	  704.00	  677.48	-2236.73	  537.68
     15.6700	  653.00	  676.30	-2286.55	  536.54
     15.7700	  657.00	  675.14	-2281.39	  535.41
     15.8700	  702.00	  673.99	-2235.24	  534.30
     15.9700	  680.00	  672.85	-2256.10	  533.19
     16.0700	  652.00	  671.72	-2282.97	  532.10
     16.1700	  676.00	  670.61	-2257.86	  531.02
     16.2700	  658.00	  669.52	-2274.77	  529.94
     16.3700	  681.00	  668.43	-2250.68	  528.88
     16.4700	  683.00	  667.36	-2247.61	  527.83
     16.5700	  676.00	  666.30	-2253.55	  526.79
     16.6700	  681.00	  665.25	-2247.50	  525.76
     16.7700	  668.00	  664.21	-2259.46	  524.74
     16.8700	  709.00	  663.18	-2217.43	  523.73
     16.9700	  644.00	  662.17	-2281.42	  522.73
     17.0700	  651.00	  661.16	-2273.41	  521.74
     17.1700	  627.00	  660.17	-2296.42	  520.76
     17.2700	  691.00	  659.19	-2231.44	  519.79
     17.3700	  691.00	  658.22	-2230.47	  518.83
     17.4700	  691.00	  657.26	-2229.51	  517.88
     17.5700	  674.00	  656.31	-2245.56	  516.94
     17.6700	  629.00	  655.37	-2289.62	  516.01
     17.7700	  635.00	  654.44	-2282.69	  515.09
     17.8700	  630.00	  653.53	-2286.78	  514.18
     17.9700	  659.00	  652.62	-2256.87	  513.28
     18.0700	  637.00	  651.72	-2277.97	  512.38
     18.1700	  671.00	  650.83	-2243.08	  511.50
     18.2700	  703.00	  649.96	-2210.21	  510.63
     18.3700	  669.00	  649.09	-2243.34	  509.77
     18.4700	  660.00	  648.23	-2251.48	  508.91
     18.5700	  647.00	  647.38	-2263.63	  508.07
     18.6700	  631.00	  646.55	-2278.80	  507.23
     18.7700	  667.00	  645.72	-2241.97	  506.41
     18.8700	  641.00	  644.90	-2267.15	  505.59
     18.9700	  643.00	  644.09	-2264.34	  504.78
     19.0700	  626.00	  644.58	-2281.83	  503.98
     19.1700	  659.00	  645.97	-2250.22	  503.19
     19.2700	  685.00	  645.26	-2223.51	  502.41
     19.3700	  640.00	  644.57	-2267.82	  501.64
     19.4700	  664.00	  643.88	-2243.13	  500.88
     19.5700	  629.00	  643.21	-2277.46	  500.12
     19.6700	  579.00	  642.55	-2326.80	  499.38
     19.7700	  608.00	  641.90	-2297.15	  498.64
     19.8700	  631.00	  641.26	-2273.51	  497.91
     19.9700	  639.00	  640.64	-2264.89	  497.19
     20.0700	  621.00	  640.03	-2282.28	  496.48
     20.1700	  593.00	  639.49	-2309.75	  495.77
     20.2700	  683.00	  638.91	-2219.16	  495.08
     20.3700	  633.00	  638.34	-2268.59	  494.39
     20.4700	  666.00	  637.78	-2235.03	  493.71
     20.5700	  612.00	  637.23	-2288.48	  493.04
     20.6700	  660.00	  636.69	-2239.94	  492.38
     20.7700	  588.00	  636.17	-2311.42	  491.73
     20.8700	  645.00	  635.67	-2253.92	  491.08
     20.9700	  661.00	  635.17	-2237.42	  490.44
     21.0700	  626.00	  634.70	-2271.95	  489.81
     21.1700	  567.00	  634.23	-2330.48	  489.19
     21.2700	  659.00	  633.78	-2238.03	  488.57
     21.3700	  633.00	  633.35	-2263.60	  487.97
     21.4700	  638.00	  632.93	-2258.18	  487.37
     21.5700	  609.00	  632.53	-2286.78	  486.78
     21.6700	  641.00	  632.15	-2254.40	  486.19
     21.7700	  647.00	  631.78	-2248.03	  485.62
     21.8700	  633.00	  631.43	-2261.68	  485.05
     21.9700	  623.00	  631.10	-2271.35	  484.49
     22.0700	  669.00	  630.80	-2225.05	  483.93
     22.1700	  639.00	  630.51	-2254.76	  483.38
     22.2700	  640.00	  630.45	-2253.70	  482.85
     22.3700	  666.00	  630.21	-2227.46	  482.31
     22.4700	  616.00	  630.00	-2277.25	  481.79
     22.5700	  644.00	  629.81	-2249.06	  481.27
     22.6700	  636.00	  629.65	-2256.90	  480.76
     22.7700	  635.00	  629.52	-2257.77	  480.26
     22.8700	  598.00	  629.42	-2294.67	  479.76
     22.9700	  623.00	  629.36	-2269.61	  479.27
     23.0700	  626.00	  629.34	-2266.59	  478.79
     23.1700	  635.00	  629.36	-2257.61	  478.31
     23.2700	  651.00	  629.44	-2241.69	  477.84
     23.3700	  700.00	  629.57	-2192.82	  477.38
     23.4700	  670.00	  629.77	-2223.02	  476.92
     23.5700	  645.00	  630.05	-2248.30	  476.47
     23.6700	  661.00	  630.42	-2232.67	  476.03
     23.7700	  710.00	  630.92	-2184.17	  475.59
     23.8700	  633.00	  631.57	-2261.82	  475.16
     23.9700	  666.00	  632.44	-2229.69	  474.74
     24.0700	  623.00	  633.58	-2273.83	  474.32
     24.1700	  615.00	  635.27	-2283.52	  473.91
     24.2700	  649.00	  637.70	-2251.95	  473.51
     24.3700	  637.00	  641.21	-2267.46	  473.11
     24.4700	  672.00	  646.22	-2237.47	  472.72
     24.5700	  649.00	  653.03	-2267.28	  472.34
     24.6700	  702.00	  661.72	-2222.97	  471.96
     24.7700	  725.00	  671.84	-2210.09	  471.58
     24.8700	  716.00	  682.19	-2229.44	  471.22
     24.9700	  710.00	  690.49	-2243.74	  470.86
     25.0700	  777.00	  693.54	-2179.79	  470.50
     25.1700	  721.00	  689.30	-2231.55	  470.15
     25.2700	  760.00	  679.97	-2183.22	  469.81
     25.3700	  721.00	  669.85	-2212.10	  469.47
     25.4700	  641.00	  661.80	-2284.05	  469.14
     25.5700	  702.00	  656.50	-2217.75	  468.81
     25.6700	  684.00	  653.68	-2232.93	  468.49
     25.7700	  683.00	  652.78	-2233.03	  468.18
     25.8700	  674.00	  653.25	-2242.50	  467.87
     25.9700	  677.00	  654.68	-2240.93	  467.57
     26.0700	  649.00	  656.87	-2271.12	  467.27
     26.1700	  671.00	  659.71	-2251.96	  466.97
     26.2700	  635.00	  663.20	-2291.45	  466.69
     26.3700	  669.00	  667.38	-2261.63	  466.41
     26.4700	  663.00	  672.34	-2272.59	  466.13
     26.5700	  681.00	  678.19	-2260.44	  465.86
     26.6700	  707.00	  685.11	-2241.36	  465.59
     26.7700	  676.00	  693.32	-2280.57	  465.33
     26.8700	  704.00	  703.10	-2262.35	  465.08
     26.9700	  692.00	  714.87	-2286.12	  464.83
     27.0700	  698.00	  729.16	-2294.41	  464.58
     27.1700	  646.00	  746.72	-2363.97	  464.34
     27.2700	  733.00	  768.64	-2298.89	  464.10
     27.3700	  743.00	  796.61	-2316.86	  463.87
     27.4700	  755.00	  833.70	-2341.95	  463.65
     27.5700	  837.00	  886.33	-2312.58	  463.43
     27.6700	  880.00	  968.76	-2352.01	  463.21
     27.7700	  888.00	 1110.85	-2486.10	  463.00
     27.8700	 1069.00	 1367.76	-2562.01	  462.79
     27.9700	 1354.00	 1826.54	-2735.79	  462.59
     28.0700	 2044.00	 2596.73	-2815.98	  462.40
     28.1700	 3327.00	 3766.10	-2702.35	  462.20
     28.2700	 5462.00	 5306.53	-2107.78	  462.02
     28.3700	 7730.00	 6936.36	-1469.61	  461.83
     28.4700	 9053.00	 8047.29	-1257.54	  461.65
     28.5700	 8646.00	 7936.96	-1554.21	  461.48
     28.6700	 6857.00	 6638.87	-2045.12	  461.31
     28.7700	 4893.00	 5152.30	-2522.55	  461.14
     28.8700	 3825.00	 4265.29	-2703.54	  460.98
     28.9700	 4001.00	 4121.87	-2384.12	  460.83
     29.0700	 4787.00	 4436.27	-1912.52	  460.67
     29.1700	 5101.00	 4725.64	-1887.89	  460.52
     29.2700	 4764.00	 4527.48	-2026.73	  460.38
     29.3700	 3755.00	 3756.76	-2265.01	  460.24
     29.4700	 2609.00	 2797.52	-2451.77	  460.10
     29.5700	 1834.00	 1997.91	-2427.16	  459.97
     29.6700	 1376.00	 1462.86	-2350.11	  459.84
     29.7700	 1043.00	 1153.63	-2373.88	  459.72
     29.8700	  943.00	  987.86	-2308.11	  459.60
     29.9700	  914.00	  896.92	-2246.17	  459.48
     30.0700	  859.00	  841.42	-2245.67	  459.37
     30.1700	  810.00	  803.44	-2256.69	  459.26
     30.2700	  782.00	  775.69	-2256.94	  459.16
     30.3700	  772.00	  755.16	-2246.41	  459.06
     30.4700	  758.00	  740.72	-2245.97	  458.96
     30.5700	  772.00	  732.43	-2223.68	  458.87
     30.6700	  798.00	  731.36	-2196.61	  458.78
     30.7700	  711.00	  739.25	-2291.50	  458.69
     30.8700	  729.00	  757.27	-2291.52	  458.61
     30.9700	  786.00	  784.12	-2261.37	  458.53
     31.0700	  803.00	  814.05	-2274.30	  458.46
     31.1700	  801.00	  835.96	-2298.21	  458.38
     31.2700	  901.00	  835.56	-2197.81	  458.32
     31.3700	  827.00	  807.13	-2243.38	  458.25
     31.4700	  774.00	  763.65	-2252.90	  458.19
     31.5700	  735.00	  722.19	-2250.44	  458.13
     31.6700	  714.00	  690.66	-2239.91	  458.08
     31.7700	  710.00	  669.74	-2222.99	  458.02
     31.8700	  676.00	  656.90	-2244.15	  457.98
     31.9700	  657.00	  649.14	-2255.39	  457.93
     32.0700	  674.00	  644.17	-2233.42	  457.89
     32.1700	  676.00	  640.71	-2227.96	  457.85
     32.2700	  646.00	  638.14	-2255.39	  457.81
     32.3700	  662.00	  636.20	-2237.45	  457.78
     32.4700	  692.00	  634.74	-2205.99	  457.75
     32.5700	  639.00	  633.72	-2257.97	  457.72
     32.6700	  646.00	  633.14	-2250.39	  457.70
     32.7700	  694.00	  632.93	-2202.18	  457.68
     32.8700	  699.00	  633.15	-2197.40	  457.66
     32.9700	  610.00	  633.86	-2287.11	  457.65
     33.0700	  653.00	  635.13	-2245.38	  457.63
     33.1700	  683.00	  637.12	-2217.37	  457.62
     33.2700	  650.00	  640.07	-2253.32	  457.62
     33.3700	  652.00	  644.47	-2255.72	  457.61
     33.4700	  691.00	  651.24	-2223.49	  457.61
     33.5700	  681.00	  662.19	-2244.44	  457.61
     33.6700	  672.00	  680.53	-2271.78	  457.62
     33.7700	  713.00	  711.32	-2261.57	  457.62
     33.8700	  764.00	  761.05	-2260.30	  457.63
     33.9700	  799.00	  835.34	-2299.59	  457.65
     34.0700	  931.00	  934.12	-2266.37	  457.66
     34.1700	 1050.00	 1045.96	-2259.21	  457.68
     34.2700	 1259.00	 1144.34	-2148.59	  457.70
     34.3700	 1318.00	 1190.36	-2135.61	  457.72
     34.4700	 1257.00	 1154.33	-2160.58	  457.74
     34.5700	 1167.00	 1051.79	-2148.04	  457.77
     34.6700	  913.00	  930.88	-2281.13	  457.80
     34.7700	  839.00	  826.47	-2250.72	  457.83
     34.8700	  767.00	  750.32	-2246.57	  457.86
     34.9700	  741.00	  700.81	-2223.06	  457.90
     35.0700	  702.00	  670.98	-2232.23	  457.93
     35.1700	  672.00	  653.46	-2244.71	  457.97
     35.2700	  676.00	  642.81	-2230.06	  458.01
     35.3700	  666.00	  635.81	-2233.06	  458.06
     35.4700	  626.00	  630.82	-2268.07	  458.10
     35.5700	  626.00	  627.11	-2264.36	  458.15
     35.6700	  635.00	  624.16	-2252.41	  458.20
     35.7700	  668.00	  621.81	-2217.06	  458.26
     35.8700	  658.00	  619.93	-2225.18	  458.31
     35.9700	  611.00	  618.40	-2270.65	  458.37
     36.0700	  614.00	  617.17	-2266.42	  458.42
     36.1700	  571.00	  616.19	-2308.44	  458.48
     36.2700	  639.00	  615.41	-2239.66	  458.55
     36.3700	  608.00	  614.81	-2270.06	  458.61
     36.4700	  593.00	  614.39	-2284.64	  458.68
     36.5700	  600.00	  614.12	-2277.37	  458.74
     36.6700	  667.00	  614.00	-2210.25	  458.81
     36.7700	  669.00	  614.05	-2208.30	  458.88
     36.8700	  618.00	  614.49	-2259.74	  458.95
     36.9700	  643.00	  614.93	-2235.18	  459.03
     37.0700	  648.00	  615.62	-2230.87	  459.10
     37.1700	  595.00	  616.62	-2284.87	  459.18
     37.2700	  638.00	  618.65	-2243.90	  459.26
     37.3700	  636.00	  620.89	-2248.14	  459.34
     37.4700	  637.00	  624.26	-2250.51	  459.42
     37.5700	  663.00	  629.47	-2229.72	  459.51
     37.6700	  622.00	  637.62	-2278.87	  459.59
     37.7700	  619.00	  650.20	-2294.45	  459.68
     37.8700	  673.00	  668.84	-2259.09	  459.77
     37.9700	  688.00	  694.68	-2269.93	  459.85
     38.0700	  689.00	  725.08	-2299.33	  459.95
     38.1700	  730.00	  760.62	-2293.87	  460.04
     38.2700	  768.00	  792.00	-2287.25	  460.13
     38.3700	  787.00	  808.62	-2284.87	  460.23
     38.4700	  815.00	  801.30	-2249.55	  460.32
     38.5700	  706.00	  771.88	-2329.13	  460.42
     38.6700	  720.00	  733.07	-2276.32	  460.52
     38.7700	  734.00	  696.48	-2225.73	  460.62
     38.8700	  655.00	  667.50	-2275.75	  460.72
     38.9700	  634.00	  647.04	-2276.29	  460.82
     39.0700	  649.00	  633.76	-2248.01	  460.92
     39.1700	  616.00	  625.57	-2272.82	  461.03
     39.2700	  660.00	  620.57	-2223.82	  461.13
     39.3700	  621.00	  617.41	-2259.66	  461.24
     39.4700	  613.00	  614.02	-2264.27	  461.35
     39.5700	  594.00	  612.51	-2281.76	  461.45
     39.6700	  603.00	  611.38	-2271.63	  461.56
     39.7700	  593.00	  610.51	-2280.76	  461.67
     39.8700	  637.00	  609.83	-2236.08	  461.79
     39.9700	  657.00	  609.30	-2215.55	  461.90
     40.0700	  601.00	  608.90	-2271.15	  462.01
     40.1700	  601.00	  608.59	-2270.84	  462.12
     40.2700	  635.00	  608.36	-2236.61	  462.24
     40.3700	  643.00	  608.20	-2228.45	  462.35
     40.4700	  641.00	  608.10	-2230.35	  462.47
     40.5700	  632.00	  608.05	-2239.30	  462.59
     40.6700	  599.00	  608.05	-2272.30	  462.71
     40.7700	  610.00	  608.63	-2261.88	  462.83
