MSG Master    CELL:    5.87453   5.87453  23.06242   90.0000   90.0000  120.0000   SPGR: P 63/m m c             TEMP:    435.65
  2   1280     2.52000     0.00000    -0.08737     0.00000     0.00000    0
    95    95     0     0     2
       0.00000      10.00000
     125.00000     130.00000
 2Theta	Yobs	Ycal	Yobs-Ycal	Backg	Posr	(hkl)	K
      0.7700	    0.00	 1044.86	-2338.50	  898.60
      0.8700	    0.00	 1041.14	-2338.50	  894.88
      0.9700	   53.00	 1037.45	-2338.50	  891.19
      1.0700	   40.00	 1033.78	-2338.50	  887.51
      1.1700	   53.00	 1030.13	-2338.50	  883.87
      1.2700	   50.00	 1026.50	-2338.50	  880.24
      1.3700	   56.00	 1022.90	-2338.50	  876.64
      1.4700	   93.00	 1019.33	-2338.50	  873.06
      1.5700	  317.00	 1015.77	-2338.50	  869.51
      1.6700	  435.00	 1012.24	-2338.50	  865.98
      1.7700	  604.00	 1008.73	-2338.50	  862.47
      1.8700	  682.00	 1005.25	-2338.50	  858.99
      1.9700	  741.00	 1001.79	-2338.50	  855.53
      2.0700	  790.00	  998.35	-2338.50	  852.09
      2.1700	  810.00	  994.93	-2338.50	  848.67
      2.2700	  768.00	  991.54	-2338.50	  845.28
      2.3700	  736.00	  988.17	-2338.50	  841.91
      2.4700	  732.00	  984.82	-2338.50	  838.56
      2.5700	  673.00	  981.50	-2338.50	  835.24
      2.6700	  675.00	  978.19	-2338.50	  831.93
      2.7700	  646.00	  974.91	-2338.50	  828.65
      2.8700	  612.00	  971.65	-2338.50	  825.39
      2.9700	  649.00	  968.42	-2338.50	  822.15
      3.0700	  583.00	  965.20	-2338.50	  818.94
      3.1700	  578.00	  962.01	-2338.50	  815.75
      3.2700	  732.00	  958.84	-2338.50	  812.57
      3.3700	  944.00	  955.68	-2338.50	  809.42
      3.4700	 1061.00	  952.56	-2338.50	  806.29
      3.5700	 1238.00	  949.45	-2338.50	  803.19
      3.6700	 1305.00	  946.36	-2338.50	  800.10
      3.7700	 1451.00	  943.30	-2338.50	  797.04
      3.8700	 1440.00	  940.25	-2338.50	  793.99
      3.9700	 1627.00	  937.23	-2338.50	  790.97
      4.0700	 1637.00	  934.23	-2338.50	  787.97
      4.1700	 1740.00	  931.25	-2338.50	  784.99
      4.2700	 1726.00	  928.29	-2338.50	  782.03
      4.3700	 1660.00	  925.35	-2338.50	  779.09
      4.4700	 1595.00	  922.43	-2338.50	  776.17
      4.5700	 1580.00	  919.53	-2338.50	  773.27
      4.6700	 1533.00	  916.65	-2338.50	  770.39
      4.7700	 1526.00	  913.79	-2338.50	  767.53
      4.8700	 1429.00	  910.96	-2338.50	  764.69
      4.9700	 1436.00	  908.14	-2338.50	  761.88
      5.0700	 1414.00	  905.34	-2338.50	  759.08
      5.1700	 1354.00	  902.56	-2338.50	  756.30
      5.2700	 1304.00	  899.81	-2338.50	  753.54
      5.3700	 1305.00	  897.07	-2338.50	  750.80
      5.4700	 1243.00	  894.35	-2338.50	  748.09
      5.5700	 1220.00	  891.65	-2338.50	  745.39
      5.6700	 1244.00	  888.97	-2338.50	  742.71
      5.7700	 1162.00	  886.31	-2338.50	  740.05
      5.8700	 1190.00	  883.67	-2338.50	  737.41
      5.9700	 1149.00	  881.05	-2338.50	  734.78
      6.0700	 1136.00	  878.44	-2338.50	  732.18
      6.1700	 1116.00	  875.86	-2338.50	  729.60
      6.2700	 1128.00	  873.29	-2338.50	  727.03
      6.3700	 1094.00	  870.75	-2338.50	  724.49
      6.4700	 1017.00	  868.22	-2338.50	  721.96
      6.5700	 1035.00	  865.71	-2338.50	  719.45
      6.6700	  955.00	  863.22	-2338.50	  716.96
      6.7700	 1051.00	  860.75	-2338.50	  714.49
      6.8700	  947.00	  858.30	-2338.50	  712.04
      6.9700	 1029.00	  855.86	-2338.50	  709.60
      7.0700	 1013.00	  853.45	-2338.50	  707.18
      7.1700	  889.00	  851.05	-2338.50	  704.78
      7.2700	  938.00	  848.67	-2338.50	  702.40
      7.3700	  903.00	  846.30	-2338.50	  700.04
      7.4700	  886.00	  843.96	-2338.50	  697.70
      7.5700	  856.00	  841.63	-2338.50	  695.37
      7.6700	  915.00	  839.32	-2338.50	  693.06
      7.7700	  903.00	  837.03	-2338.50	  690.77
      7.8700	  905.00	  834.76	-2338.50	  688.49
      7.9700	  891.00	  832.50	-2338.50	  686.24
      8.0700	  808.00	  830.26	-2338.50	  684.00
      8.1700	  842.00	  828.04	-2338.50	  681.78
      8.2700	  861.00	  825.83	-2338.50	  679.57
      8.3700	  838.00	  823.64	-2338.50	  677.38
      8.4700	  857.00	  821.47	-2338.50	  675.21
      8.5700	  877.00	  819.32	-2338.50	  673.06
      8.6700	  802.00	  817.18	-2338.50	  670.92
      8.7700	  843.00	  815.06	-2338.50	  668.80
      8.8700	  845.00	  812.96	-2338.50	  666.70
      8.9700	  800.00	  810.87	-2338.50	  664.61
      9.0700	  788.00	  808.80	-2338.50	  662.54
      9.1700	  828.00	  806.75	-2338.50	  660.48
      9.2700	  842.00	  804.71	-2338.50	  658.45
      9.3700	  789.00	  802.69	-2338.50	  656.43
      9.4700	  805.00	  800.68	-2338.50	  654.42
      9.5700	  809.00	  798.69	-2338.50	  652.43
      9.6700	  808.00	  796.72	-2338.50	  650.46
      9.7700	  774.00	  794.76	-2338.50	  648.50
      9.8700	  807.00	  792.82	-2338.50	  646.56
      9.9700	  828.00	  790.89	-2338.50	  644.63
     10.0700	  815.00	  790.98	-2314.48	  642.72
     10.1700	  827.00	  789.30	-2300.80	  640.83
     10.2700	  783.00	  787.68	-2343.18	  638.95
     10.3700	  798.00	  786.13	-2326.63	  637.09
     10.4700	  777.00	  784.67	-2346.17	  635.24
     10.5700	  763.00	  783.34	-2358.84	  633.41
     10.6700	  798.00	  782.19	-2322.69	  631.59
     10.7700	  783.00	  781.29	-2336.79	  629.79
     10.8700	  741.00	  780.74	-2378.24	  628.00
     10.9700	  744.00	  780.63	-2375.13	  626.23
     11.0700	  784.00	  781.01	-2335.51	  624.47
     11.1700	  755.00	  781.92	-2365.42	  622.73
     11.2700	  820.00	  783.36	-2301.86	  621.00
     11.3700	  747.00	  785.38	-2376.88	  619.29
     11.4700	  784.00	  788.05	-2342.55	  617.59
     11.5700	  834.00	  791.50	-2296.00	  615.90
     11.6700	  823.00	  795.95	-2311.45	  614.23
     11.7700	  818.00	  801.65	-2322.15	  612.58
     11.8700	  807.00	  808.89	-2340.39	  610.94
     11.9700	  799.00	  817.81	-2357.31	  609.31
     12.0700	  896.00	  828.03	-2270.53	  607.70
     12.1700	  887.00	  838.16	-2289.66	  606.10
     12.2700	  901.00	  845.28	-2282.78	  604.52
     12.3700	  941.00	  844.88	-2242.38	  602.95
     12.4700	  905.00	  833.53	-2267.03	  601.39
     12.5700	  784.00	  814.10	-2368.60	  599.85
     12.6700	  787.00	  793.82	-2345.32	  598.32
     12.7700	  734.00	  777.21	-2381.71	  596.80
     12.8700	  773.00	  765.06	-2330.56	  595.30
     12.9700	  742.00	  756.63	-2353.13	  593.81
     13.0700	  695.00	  750.80	-2394.30	  592.34
     13.1700	  728.00	  746.58	-2357.08	  590.88
     13.2700	  722.00	  743.29	-2359.79	  589.43
     13.3700	  737.00	  740.56	-2342.06	  587.99
     13.4700	  696.00	  738.16	-2380.66	  586.57
     13.5700	  774.00	  736.00	-2300.50	  585.16
     13.6700	  716.00	  734.00	-2356.50	  583.77
     13.7700	  682.00	  732.13	-2388.63	  582.38
     13.8700	  704.00	  730.36	-2364.86	  581.01
     13.9700	  757.00	  728.67	-2310.17	  579.66
     14.0700	  748.00	  727.05	-2317.55	  578.31
     14.1700	  763.00	  725.48	-2300.98	  576.98
     14.2700	  736.00	  723.96	-2326.46	  575.66
     14.3700	  737.00	  722.47	-2323.97	  574.35
     14.4700	  699.00	  721.03	-2360.53	  573.06
     14.5700	  746.00	  719.61	-2312.11	  571.77
     14.6700	  711.00	  718.23	-2345.73	  570.50
     14.7700	  681.00	  716.86	-2374.36	  569.25
     14.8700	  656.00	  715.53	-2398.03	  568.00
     14.9700	  702.00	  714.21	-2350.71	  566.77
     15.0700	  684.00	  712.92	-2367.42	  565.54
     15.1700	  742.00	  711.64	-2308.14	  564.33
     15.2700	  712.00	  710.39	-2336.89	  563.14
     15.3700	  690.00	  709.15	-2357.65	  561.95
     15.4700	  735.00	  707.92	-2311.42	  560.78
     15.5700	  705.00	  706.72	-2340.22	  559.61
     15.6700	  675.00	  705.53	-2369.03	  558.46
     15.7700	  672.00	  704.35	-2370.85	  557.32
     15.8700	  712.00	  703.19	-2329.69	  556.19
     15.9700	  676.00	  702.04	-2364.54	  555.08
     16.0700	  684.00	  700.91	-2355.41	  553.97
     16.1700	  666.00	  699.79	-2372.29	  552.88
     16.2700	  677.00	  698.68	-2360.18	  551.79
     16.3700	  722.00	  697.59	-2314.09	  550.72
     16.4700	  706.00	  696.50	-2329.00	  549.66
     16.5700	  723.00	  695.44	-2310.94	  548.61
     16.6700	  730.00	  694.38	-2302.88	  547.57
     16.7700	  692.00	  693.33	-2339.83	  546.54
     16.8700	  719.00	  692.30	-2311.80	  545.52
     16.9700	  690.00	  691.28	-2339.78	  544.52
     17.0700	  673.00	  690.27	-2355.77	  543.52
     17.1700	  658.00	  689.28	-2369.78	  542.54
     17.2700	  741.00	  688.29	-2285.79	  541.56
     17.3700	  700.00	  687.31	-2325.81	  540.60
     17.4700	  733.00	  686.35	-2291.85	  539.64
     17.5700	  701.00	  685.40	-2322.90	  538.70
     17.6700	  718.00	  684.46	-2304.96	  537.76
     17.7700	  680.00	  683.53	-2342.03	  536.84
     17.8700	  642.00	  682.61	-2379.11	  535.93
     17.9700	  673.00	  681.70	-2347.20	  535.02
     18.0700	  741.00	  680.80	-2278.30	  534.13
     18.1700	  672.00	  679.91	-2346.41	  533.25
     18.2700	  704.00	  679.03	-2313.53	  532.37
     18.3700	  683.00	  678.16	-2333.66	  531.51
     18.4700	  626.00	  677.31	-2389.81	  530.66
     18.5700	  678.00	  676.46	-2336.96	  529.81
     18.6700	  584.00	  675.62	-2430.12	  528.98
     18.7700	  666.00	  674.80	-2347.30	  528.15
     18.8700	  709.00	  673.98	-2303.48	  527.34
     18.9700	  690.00	  673.17	-2321.67	  526.53
     19.0700	  657.00	  672.37	-2353.87	  525.74
     19.1700	  660.00	  675.17	-2353.67	  524.95
     19.2700	  661.00	  674.47	-2351.97	  524.17
     19.3700	  660.00	  673.78	-2352.28	  523.40
     19.4700	  643.00	  673.10	-2368.60	  522.65
     19.5700	  677.00	  672.44	-2333.94	  521.90
     19.6700	  691.00	  671.79	-2319.29	  521.15
     19.7700	  691.00	  671.15	-2318.65	  520.42
     19.8700	  666.00	  670.52	-2343.02	  519.70
     19.9700	  674.00	  669.90	-2334.40	  518.98
     20.0700	  707.00	  669.30	-2300.80	  518.28
     20.1700	  642.00	  668.71	-2365.21	  517.58
     20.2700	  669.00	  668.19	-2337.69	  516.89
     20.3700	  627.00	  667.63	-2379.13	  516.21
     20.4700	  672.00	  667.08	-2333.58	  515.54
     20.5700	  691.00	  666.54	-2314.04	  514.88
     20.6700	  682.00	  666.02	-2322.52	  514.23
     20.7700	  646.00	  665.51	-2358.01	  513.58
     20.8700	  696.00	  665.01	-2307.51	  512.95
     20.9700	  638.00	  664.53	-2365.03	  512.32
     21.0700	  687.00	  664.07	-2315.57	  511.70
     21.1700	  676.00	  663.62	-2326.12	  511.08
     21.2700	  669.00	  663.18	-2332.68	  510.48
     21.3700	  694.00	  662.76	-2307.26	  509.88
     21.4700	  651.00	  662.36	-2349.86	  509.30
     21.5700	  685.00	  661.97	-2315.47	  508.72
     21.6700	  697.00	  661.61	-2303.11	  508.14
     21.7700	  669.00	  661.25	-2330.75	  507.58
     21.8700	  635.00	  660.92	-2364.42	  507.02
     21.9700	  666.00	  660.61	-2333.11	  506.47
     22.0700	  688.00	  660.32	-2310.82	  505.93
     22.1700	  606.00	  660.04	-2392.54	  505.40
     22.2700	  670.00	  659.79	-2328.29	  504.87
     22.3700	  680.00	  659.57	-2318.07	  504.35
     22.4700	  665.00	  659.58	-2333.07	  503.84
     22.5700	  669.00	  659.40	-2328.90	  503.34
     22.6700	  672.00	  659.26	-2325.76	  502.84
     22.7700	  630.00	  659.15	-2367.65	  502.36
     22.8700	  636.00	  659.06	-2361.56	  501.87
     22.9700	  702.00	  659.02	-2295.52	  501.40
     23.0700	  686.00	  659.01	-2311.51	  500.93
     23.1700	  656.00	  659.05	-2341.55	  500.47
     23.2700	  638.00	  659.14	-2359.64	  500.02
     23.3700	  684.00	  659.28	-2313.78	  499.57
     23.4700	  590.00	  659.48	-2407.98	  499.13
     23.5700	  690.00	  659.76	-2308.26	  498.70
     23.6700	  611.00	  660.13	-2387.63	  498.28
     23.7700	  692.00	  660.61	-2307.11	  497.86
     23.8700	  663.00	  661.23	-2336.73	  497.45
     23.9700	  644.00	  662.06	-2356.56	  497.04
     24.0700	  628.00	  663.17	-2373.67	  496.64
     24.1700	  666.00	  664.72	-2337.22	  496.25
     24.2700	  640.00	  666.94	-2365.44	  495.87
     24.3700	  677.00	  670.15	-2331.65	  495.49
     24.4700	  713.00	  674.71	-2300.21	  495.11
     24.5700	  704.00	  681.10	-2315.60	  494.75
     24.6700	  721.00	  689.41	-2306.91	  494.39
     24.7700	  784.00	  699.34	-2253.84	  494.04
     24.8700	  785.00	  709.86	-2263.36	  493.69
     24.9700	  768.00	  718.88	-2289.38	  493.35
     25.0700	  768.00	  723.21	-2293.71	  493.01
     25.1700	  715.00	  720.26	-2343.76	  492.68
     25.2700	  781.00	  711.42	-2268.92	  492.36
     25.3700	  737.00	  701.21	-2302.71	  492.04
     25.4700	  701.00	  692.93	-2330.43	  491.73
     25.5700	  693.00	  687.41	-2332.91	  491.43
     25.6700	  695.00	  684.49	-2327.99	  491.13
     25.7700	  716.00	  683.59	-2306.09	  490.84
     25.8700	  717.00	  684.12	-2305.62	  490.55
     25.9700	  673.00	  685.65	-2351.15	  490.27
     26.0700	  711.00	  687.95	-2315.45	  489.99
     26.1700	  711.00	  690.91	-2318.41	  489.72
     26.2700	  726.00	  694.53	-2307.03	  489.46
     26.3700	  713.00	  698.84	-2324.34	  489.20
     26.4700	  706.00	  703.94	-2336.44	  488.94
     26.5700	  685.00	  709.95	-2363.45	  488.70
     26.6700	  711.00	  717.04	-2344.54	  488.45
     26.7700	  729.00	  725.43	-2334.93	  488.22
     26.8700	  718.00	  735.42	-2355.92	  487.98
     26.9700	  743.00	  747.41	-2342.91	  487.76
     27.0700	  722.00	  761.93	-2378.43	  487.53
     27.1700	  730.00	  779.75	-2388.25	  487.32
     27.2700	  744.00	  801.95	-2396.45	  487.11
     27.3700	  800.00	  830.18	-2368.68	  486.90
     27.4700	  775.00	  867.41	-2430.91	  486.70
     27.5700	  823.00	  919.76	-2435.26	  486.50
     27.6700	  905.00	 1000.92	-2434.42	  486.31
     27.7700	  926.00	 1139.99	-2552.49	  486.12
     27.8700	 1100.00	 1391.65	-2630.15	  485.94
     27.9700	 1393.00	 1844.12	-2789.62	  485.77
     28.0700	 2036.00	 2612.14	-2914.64	  485.59
     28.1700	 3206.00	 3795.43	-2927.93	  485.43
     28.2700	 5499.00	 5385.31	-2224.81	  485.26
     28.3700	 7796.00	 7119.34	-1661.84	  485.11
     28.4700	 9354.00	 8386.36	-1370.86	  484.95
     28.5700	 9277.00	 8422.02	-1483.52	  484.80
     28.6700	 7602.00	 7138.23	-1874.73	  484.66
     28.7700	 5228.00	 5540.22	-2650.72	  484.52
     28.8700	 4152.00	 4531.11	-2717.61	  484.38
     28.9700	 4174.00	 4326.16	-2490.66	  484.25
     29.0700	 4962.00	 4654.20	-2030.70	  484.13
     29.1700	 5477.00	 5009.14	-1870.64	  484.00
     29.2700	 5156.00	 4875.65	-2058.15	  483.89
     29.3700	 3997.00	 4099.70	-2441.20	  483.77
     29.4700	 2888.00	 3066.64	-2517.14	  483.66
     29.5700	 2047.00	 2180.89	-2472.39	  483.56
     29.6700	 1436.00	 1580.31	-2482.81	  483.45
     29.7700	 1198.00	 1231.89	-2372.39	  483.36
     29.8700	 1007.00	 1046.17	-2377.67	  483.26
     29.9700	  959.00	  945.68	-2325.18	  483.17
     30.0700	  946.00	  885.21	-2277.71	  483.09
     30.1700	  837.00	  844.12	-2345.62	  483.01
     30.2700	  824.00	  814.05	-2328.55	  482.93
     30.3700	  811.00	  791.53	-2319.03	  482.86
     30.4700	  787.00	  775.09	-2326.59	  482.79
     30.5700	  765.00	  764.46	-2337.96	  482.72
     30.6700	  759.00	  760.32	-2339.82	  482.66
     30.7700	  773.00	  764.07	-2329.57	  482.60
     30.8700	  777.00	  776.91	-2338.41	  482.54
     30.9700	  761.00	  798.11	-2375.61	  482.49
     31.0700	  820.00	  823.26	-2341.76	  482.44
     31.1700	  852.00	  843.20	-2329.70	  482.40
     31.2700	  818.00	  845.34	-2365.84	  482.36
     31.3700	  816.00	  822.72	-2345.22	  482.32
     31.4700	  817.00	  784.92	-2306.42	  482.29
     31.5700	  837.00	  747.54	-2249.04	  482.25
     31.6700	  755.00	  718.58	-2302.08	  482.23
     31.7700	  774.00	  699.15	-2263.65	  482.20
     31.8700	  724.00	  687.16	-2301.66	  482.18
     31.9700	  724.00	  679.87	-2294.37	  482.16
     32.0700	  687.00	  675.19	-2326.69	  482.15
     32.1700	  708.00	  671.91	-2302.41	  482.14
     32.2700	  744.00	  669.46	-2263.96	  482.13
     32.3700	  695.00	  667.58	-2311.08	  482.12
     32.4700	  696.00	  666.16	-2308.66	  482.12
     32.5700	  734.00	  665.15	-2269.65	  482.12
     32.6700	  722.00	  664.51	-2281.01	  482.13
     32.7700	  695.00	  664.25	-2307.75	  482.13
     32.8700	  694.00	  664.40	-2308.90	  482.14
     32.9700	  717.00	  665.02	-2286.52	  482.15
     33.0700	  638.00	  666.14	-2366.64	  482.17
     33.1700	  727.00	  667.91	-2279.41	  482.19
     33.2700	  671.00	  670.56	-2338.06	  482.21
     33.3700	  727.00	  674.49	-2285.99	  482.23
     33.4700	  680.00	  680.49	-2338.99	  482.26
     33.5700	  703.00	  690.15	-2325.65	  482.29
     33.6700	  715.00	  706.38	-2329.88	  482.32
     33.7700	  757.00	  733.95	-2315.45	  482.35
     33.8700	  786.00	  779.39	-2331.89	  482.39
     33.9700	  901.00	  849.05	-2286.55	  482.43
     34.0700	 1032.00	  944.59	-2251.09	  482.47
     34.1700	 1115.00	 1056.88	-2280.38	  482.52
     34.2700	 1324.00	 1161.59	-2176.09	  482.56
     34.3700	 1403.00	 1220.21	-2155.71	  482.61
     34.4700	 1269.00	 1197.84	-2267.34	  482.66
     34.5700	 1159.00	 1101.59	-2281.09	  482.72
     34.6700	  981.00	  979.02	-2336.52	  482.77
     34.7700	  864.00	  869.81	-2344.31	  482.83
     34.8700	  814.00	  789.00	-2313.50	  482.89
     34.9700	  745.00	  736.22	-2329.72	  482.95
     35.0700	  700.00	  704.55	-2343.05	  483.02
     35.1700	  703.00	  686.17	-2321.67	  483.09
     35.2700	  748.00	  675.19	-2265.69	  483.15
     35.3700	  684.00	  668.15	-2322.65	  483.23
     35.4700	  666.00	  663.15	-2335.65	  483.30
     35.5700	  666.00	  659.39	-2331.89	  483.37
     35.6700	  630.00	  656.47	-2364.97	  483.45
     35.7700	  705.00	  654.15	-2287.65	  483.53
     35.8700	  641.00	  652.29	-2349.79	  483.61
     35.9700	  716.00	  650.80	-2273.30	  483.70
     36.0700	  608.00	  649.59	-2380.09	  483.78
     36.1700	  624.00	  648.63	-2363.13	  483.87
     36.2700	  647.00	  647.87	-2339.37	  483.96
     36.3700	  673.00	  647.28	-2312.78	  484.05
     36.4700	  690.00	  646.86	-2295.36	  484.14
     36.5700	  665.00	  646.59	-2320.09	  484.23
     36.6700	  650.00	  646.47	-2334.97	  484.33
     36.7700	  683.00	  646.51	-2302.01	  484.42
     36.8700	  681.00	  646.70	-2304.20	  484.52
     36.9700	  636.00	  647.09	-2349.59	  484.62
     37.0700	  677.00	  647.90	-2309.40	  484.73
     37.1700	  674.00	  648.82	-2313.32	  484.83
     37.2700	  689.00	  650.67	-2300.17	  484.93
     37.3700	  674.00	  652.62	-2317.12	  485.04
     37.4700	  644.00	  655.56	-2350.06	  485.15
     37.5700	  665.00	  660.10	-2333.60	  485.26
     37.6700	  690.00	  667.21	-2315.71	  485.37
     37.7700	  670.00	  678.40	-2346.90	  485.48
     37.8700	  692.00	  695.36	-2341.86	  485.60
     37.9700	  679.00	  719.52	-2379.02	  485.71
     38.0700	  733.00	  748.75	-2354.25	  485.83
     38.1700	  753.00	  784.45	-2369.95	  485.94
     38.2700	  847.00	  817.92	-2309.42	  486.06
     38.3700	  788.00	  838.86	-2389.36	  486.18
     38.4700	  854.00	  836.83	-2321.33	  486.30
     38.5700	  730.00	  810.81	-2419.31	  486.43
     38.6700	  782.00	  772.42	-2328.92	  486.55
     38.7700	  704.00	  734.58	-2369.08	  486.68
     38.8700	  630.00	  703.97	-2412.47	  486.80
     38.9700	  669.00	  682.12	-2351.62	  486.93
     39.0700	  682.00	  667.91	-2324.41	  487.06
     39.1700	  648.00	  659.21	-2349.71	  487.18
     39.2700	  643.00	  653.98	-2349.48	  487.31
     39.3700	  660.00	  650.74	-2329.24	  487.45
     39.4700	  680.00	  648.60	-2307.10	  487.58
     39.5700	  669.00	  645.80	-2315.30	  487.71
     39.6700	  642.00	  644.70	-2341.20	  487.84
     39.7700	  659.00	  643.86	-2323.36	  487.98
     39.8700	  616.00	  643.21	-2365.71	  488.11
     39.9700	  676.00	  642.71	-2305.21	  488.25
     40.0700	  653.00	  642.34	-2327.84	  488.39
     40.1700	  630.00	  642.05	-2350.55	  488.52
     40.2700	  695.00	  641.85	-2285.35	  488.66
     40.3700	  679.00	  641.72	-2301.22	  488.80
     40.4700	  648.00	  641.64	-2332.14	  488.94
     40.5700	  635.00	  641.61	-2345.11	  489.08
     40.6700	  617.00	  641.63	-2363.13	  489.22
     40.7700	  595.00	  641.69	-2385.19	  489.37
