MSG Master    CELL:    5.88144   5.88144  23.10812   90.0000   90.0000  120.0000   SPGR: P 63/m m c             TEMP:    541.55
  2   1280     2.52000     0.00000    -0.08666     0.00000     0.00000    0
    96    96     0     0     2
       0.00000      10.00000
     125.00000     130.00000
 2Theta	Yobs	Ycal	Yobs-Ycal	Backg	Posr	(hkl)	K
      0.7700	    0.00	  913.04	-1951.17	  779.80
      0.8700	    0.00	  910.37	-1951.17	  777.12
      0.9700	   53.00	  907.72	-1951.17	  774.47
      1.0700	   52.00	  905.07	-1951.17	  771.83
      1.1700	   37.00	  902.45	-1951.17	  769.20
      1.2700	   33.00	  899.84	-1951.17	  766.59
      1.3700	   38.00	  897.24	-1951.17	  763.99
      1.4700	  104.00	  894.66	-1951.17	  761.41
      1.5700	  299.00	  892.09	-1951.17	  758.85
      1.6700	  492.00	  889.54	-1951.17	  756.30
      1.7700	  581.00	  887.01	-1951.17	  753.76
      1.8700	  711.00	  884.48	-1951.17	  751.24
      1.9700	  709.00	  881.98	-1951.17	  748.73
      2.0700	  724.00	  879.48	-1951.17	  746.24
      2.1700	  776.00	  877.00	-1951.17	  743.76
      2.2700	  767.00	  874.54	-1951.17	  741.29
      2.3700	  752.00	  872.09	-1951.17	  738.84
      2.4700	  749.00	  869.65	-1951.17	  736.41
      2.5700	  687.00	  867.23	-1951.17	  733.99
      2.6700	  656.00	  864.83	-1951.17	  731.58
      2.7700	  641.00	  862.43	-1951.17	  729.19
      2.8700	  611.00	  860.05	-1951.17	  726.81
      2.9700	  641.00	  857.69	-1951.17	  724.44
      3.0700	  618.00	  855.34	-1951.17	  722.09
      3.1700	  628.00	  853.00	-1951.17	  719.76
      3.2700	  734.00	  850.68	-1951.17	  717.43
      3.3700	  893.00	  848.37	-1951.17	  715.12
      3.4700	 1055.00	  846.08	-1951.17	  712.83
      3.5700	 1192.00	  843.79	-1951.17	  710.55
      3.6700	 1341.00	  841.53	-1951.17	  708.28
      3.7700	 1434.00	  839.27	-1951.17	  706.02
      3.8700	 1505.00	  837.03	-1951.17	  703.78
      3.9700	 1650.00	  834.80	-1951.17	  701.56
      4.0700	 1631.00	  832.59	-1951.17	  699.34
      4.1700	 1725.00	  830.39	-1951.17	  697.14
      4.2700	 1709.00	  828.20	-1951.17	  694.96
      4.3700	 1770.00	  826.03	-1951.17	  692.78
      4.4700	 1610.00	  823.87	-1951.17	  690.62
      4.5700	 1599.00	  821.72	-1951.17	  688.47
      4.6700	 1447.00	  819.59	-1951.17	  686.34
      4.7700	 1410.00	  817.47	-1951.17	  684.22
      4.8700	 1451.00	  815.36	-1951.17	  682.11
      4.9700	 1391.00	  813.26	-1951.17	  680.02
      5.0700	 1327.00	  811.18	-1951.17	  677.93
      5.1700	 1334.00	  809.11	-1951.17	  675.87
      5.2700	 1230.00	  807.06	-1951.17	  673.81
      5.3700	 1277.00	  805.01	-1951.17	  671.77
      5.4700	 1203.00	  802.98	-1951.17	  669.74
      5.5700	 1157.00	  800.96	-1951.17	  667.72
      5.6700	 1137.00	  798.96	-1951.17	  665.71
      5.7700	 1112.00	  796.97	-1951.17	  663.72
      5.8700	 1072.00	  794.99	-1951.17	  661.74
      5.9700	 1043.00	  793.02	-1951.17	  659.77
      6.0700	 1099.00	  791.06	-1951.17	  657.82
      6.1700	 1002.00	  789.12	-1951.17	  655.87
      6.2700	  968.00	  787.19	-1951.17	  653.94
      6.3700	  978.00	  785.27	-1951.17	  652.02
      6.4700	  929.00	  783.37	-1951.17	  650.12
      6.5700	  998.00	  781.47	-1951.17	  648.22
      6.6700	  974.00	  779.59	-1951.17	  646.34
      6.7700	  916.00	  777.72	-1951.17	  644.47
      6.8700	  963.00	  775.86	-1951.17	  642.62
      6.9700	  951.00	  774.02	-1951.17	  640.77
      7.0700	  903.00	  772.18	-1951.17	  638.94
      7.1700	  839.00	  770.36	-1951.17	  637.12
      7.2700	  895.00	  768.55	-1951.17	  635.31
      7.3700	  973.00	  766.76	-1951.17	  633.51
      7.4700	  867.00	  764.97	-1951.17	  631.72
      7.5700	  843.00	  763.19	-1951.17	  629.95
      7.6700	  884.00	  761.43	-1951.17	  628.18
      7.7700	  822.00	  759.68	-1951.17	  626.43
      7.8700	  881.00	  757.94	-1951.17	  624.69
      7.9700	  841.00	  756.21	-1951.17	  622.97
      8.0700	  816.00	  754.50	-1951.17	  621.25
      8.1700	  795.00	  752.79	-1951.17	  619.54
      8.2700	  785.00	  751.10	-1951.17	  617.85
      8.3700	  783.00	  749.41	-1951.17	  616.17
      8.4700	  839.00	  747.74	-1951.17	  614.50
      8.5700	  821.00	  746.08	-1951.17	  612.84
      8.6700	  759.00	  744.43	-1951.17	  611.19
      8.7700	  748.00	  742.80	-1951.17	  609.55
      8.8700	  772.00	  741.17	-1951.17	  607.92
      8.9700	  770.00	  739.55	-1951.17	  606.31
      9.0700	  728.00	  737.95	-1951.17	  604.70
      9.1700	  780.00	  736.35	-1951.17	  603.11
      9.2700	  783.00	  734.77	-1951.17	  601.52
      9.3700	  777.00	  733.20	-1951.17	  599.95
      9.4700	  764.00	  731.64	-1951.17	  598.39
      9.5700	  723.00	  730.09	-1951.17	  596.84
      9.6700	  725.00	  728.55	-1951.17	  595.30
      9.7700	  710.00	  727.02	-1951.17	  593.77
      9.8700	  789.00	  725.50	-1951.17	  592.25
      9.9700	  707.00	  723.99	-1951.17	  590.75
     10.0700	  738.00	  724.63	-1937.81	  589.25
     10.1700	  748.00	  723.38	-1926.55	  587.76
     10.2700	  716.00	  722.18	-1957.35	  586.29
     10.3700	  711.00	  721.05	-1961.22	  584.82
     10.4700	  735.00	  720.02	-1936.19	  583.36
     10.5700	  756.00	  719.13	-1914.30	  581.92
     10.6700	  691.00	  718.43	-1978.60	  580.48
     10.7700	  701.00	  718.01	-1968.18	  579.06
     10.8700	  721.00	  717.97	-1948.14	  577.64
     10.9700	  731.00	  718.38	-1938.55	  576.24
     11.0700	  668.00	  719.30	-2002.47	  574.85
     11.1700	  698.00	  720.74	-1973.91	  573.46
     11.2700	  660.00	  722.73	-2013.90	  572.09
     11.3700	  780.00	  725.31	-1896.49	  570.72
     11.4700	  716.00	  728.58	-1963.76	  569.37
     11.5700	  743.00	  732.69	-1940.86	  568.02
     11.6700	  741.00	  737.85	-1948.03	  566.69
     11.7700	  690.00	  744.36	-2005.53	  565.36
     11.8700	  753.00	  752.47	-1950.65	  564.05
     11.9700	  844.00	  762.23	-1869.41	  562.74
     12.0700	  834.00	  773.04	-1890.22	  561.44
     12.1700	  862.00	  783.18	-1872.36	  560.16
     12.2700	  835.00	  789.27	-1905.44	  558.88
     12.3700	  879.00	  786.61	-1858.79	  557.61
     12.4700	  781.00	  772.92	-1943.09	  556.36
     12.5700	  778.00	  752.75	-1925.93	  555.11
     12.6700	  729.00	  733.23	-1955.41	  553.87
     12.7700	  757.00	  717.79	-1911.96	  552.64
     12.8700	  719.00	  706.74	-1938.92	  551.42
     12.9700	  697.00	  699.19	-1953.37	  550.21
     13.0700	  661.00	  694.01	-1984.18	  549.00
     13.1700	  686.00	  690.26	-1955.43	  547.81
     13.2700	  683.00	  687.35	-1955.53	  546.63
     13.3700	  654.00	  684.94	-1982.11	  545.45
     13.4700	  614.00	  682.84	-2020.01	  544.29
     13.5700	  686.00	  680.95	-1946.12	  543.13
     13.6700	  641.00	  679.22	-1989.39	  541.98
     13.7700	  691.00	  677.60	-1937.77	  540.84
     13.8700	  692.00	  676.08	-1935.25	  539.71
     13.9700	  650.00	  674.63	-1975.80	  538.59
     14.0700	  707.00	  673.24	-1917.42	  537.48
     14.1700	  690.00	  671.90	-1933.08	  536.38
     14.2700	  658.00	  670.61	-1963.78	  535.28
     14.3700	  635.00	  669.35	-1985.52	  534.20
     14.4700	  670.00	  668.12	-1949.29	  533.12
     14.5700	  653.00	  666.92	-1965.09	  532.05
     14.6700	  664.00	  665.74	-1952.92	  530.99
     14.7700	  659.00	  664.59	-1956.76	  529.94
     14.8700	  627.00	  663.45	-1987.63	  528.89
     14.9700	  686.00	  662.34	-1927.51	  527.86
     15.0700	  641.00	  661.24	-1971.41	  526.83
     15.1700	  658.00	  660.15	-1953.33	  525.81
     15.2700	  656.00	  659.09	-1954.26	  524.80
     15.3700	  654.00	  658.03	-1955.20	  523.80
     15.4700	  637.00	  656.99	-1971.16	  522.81
     15.5700	  657.00	  655.96	-1950.13	  521.82
     15.6700	  606.00	  654.94	-2000.12	  520.84
     15.7700	  639.00	  653.94	-1966.11	  519.87
     15.8700	  692.00	  652.94	-1912.12	  518.91
     15.9700	  627.00	  651.96	-1976.13	  517.96
     16.0700	  695.00	  650.98	-1907.16	  517.01
     16.1700	  650.00	  650.02	-1951.20	  516.08
     16.2700	  635.00	  649.07	-1965.24	  515.15
     16.3700	  603.00	  648.12	-1996.30	  514.23
     16.4700	  663.00	  647.19	-1935.36	  513.31
     16.5700	  664.00	  646.27	-1933.44	  512.41
     16.6700	  670.00	  645.35	-1926.52	  511.51
     16.7700	  632.00	  644.44	-1963.62	  510.62
     16.8700	  689.00	  643.55	-1905.72	  509.74
     16.9700	  589.00	  642.66	-2004.83	  508.86
     17.0700	  597.00	  641.78	-1995.95	  507.99
     17.1700	  625.00	  640.90	-1967.08	  507.13
     17.2700	  610.00	  640.04	-1981.22	  506.28
     17.3700	  623.00	  639.19	-1967.36	  505.44
     17.4700	  597.00	  638.34	-1992.51	  504.60
     17.5700	  654.00	  637.50	-1934.67	  503.77
     17.6700	  628.00	  636.67	-1959.84	  502.94
     17.7700	  627.00	  635.85	-1960.02	  502.13
     17.8700	  628.00	  635.03	-1958.21	  501.32
     17.9700	  645.00	  634.22	-1940.40	  500.52
     18.0700	  627.00	  633.43	-1957.60	  499.73
     18.1700	  645.00	  632.63	-1938.81	  498.94
     18.2700	  654.00	  631.85	-1929.02	  498.16
     18.3700	  696.00	  631.07	-1886.25	  497.39
     18.4700	  627.00	  630.30	-1954.48	  496.62
     18.5700	  632.00	  629.54	-1948.72	  495.86
     18.6700	  634.00	  628.79	-1945.96	  495.11
     18.7700	  646.00	  628.04	-1933.22	  494.37
     18.8700	  613.00	  627.30	-1965.48	  493.63
     18.9700	  612.00	  629.47	-1968.65	  492.90
     19.0700	  634.00	  628.81	-1945.98	  492.18
     19.1700	  644.00	  628.16	-1935.33	  491.46
     19.2700	  626.00	  627.51	-1952.68	  490.75
     19.3700	  645.00	  626.87	-1933.05	  490.05
     19.4700	  641.00	  626.25	-1936.42	  489.35
     19.5700	  599.00	  625.63	-1977.80	  488.66
     19.6700	  627.00	  625.02	-1949.19	  487.98
     19.7700	  588.00	  624.42	-1987.60	  487.30
     19.8700	  611.00	  623.83	-1964.01	  486.63
     19.9700	  629.00	  623.25	-1945.43	  485.97
     20.0700	  597.00	  622.68	-1976.86	  485.31
     20.1700	  582.00	  622.17	-1991.34	  484.66
     20.2700	  597.00	  621.62	-1975.80	  484.01
     20.3700	  642.00	  621.08	-1930.26	  483.37
     20.4700	  588.00	  620.56	-1983.73	  482.74
     20.5700	  682.00	  620.04	-1889.21	  482.12
     20.6700	  628.00	  619.53	-1942.71	  481.50
     20.7700	  621.00	  619.04	-1949.21	  480.89
     20.8700	  596.00	  618.55	-1973.73	  480.28
     20.9700	  637.00	  618.08	-1932.26	  479.68
     21.0700	  622.00	  617.62	-1946.80	  479.08
     21.1700	  604.00	  617.17	-1964.35	  478.49
     21.2700	  611.00	  616.74	-1956.91	  477.91
     21.3700	  566.00	  616.32	-2001.49	  477.34
     21.4700	  604.00	  615.91	-1963.08	  476.77
     21.5700	  617.00	  615.51	-1949.69	  476.20
     21.6700	  618.00	  615.13	-1948.31	  475.64
     21.7700	  622.00	  614.77	-1943.94	  475.09
     21.8700	  641.00	  614.42	-1924.59	  474.54
     21.9700	  644.00	  614.08	-1921.26	  474.00
     22.0700	  641.00	  613.76	-1923.94	  473.47
     22.1700	  652.00	  613.47	-1912.64	  472.94
     22.2700	  647.00	  613.19	-1917.36	  472.42
     22.3700	  656.00	  613.13	-1908.30	  471.90
     22.4700	  637.00	  612.89	-1927.07	  471.39
     22.5700	  655.00	  612.68	-1908.85	  470.88
     22.6700	  657.00	  612.49	-1906.67	  470.38
     22.7700	  633.00	  612.34	-1930.51	  469.88
     22.8700	  656.00	  612.21	-1907.38	  469.39
     22.9700	  652.00	  612.11	-1911.29	  468.91
     23.0700	  601.00	  612.05	-1962.23	  468.43
     23.1700	  621.00	  612.04	-1942.21	  467.95
     23.2700	  590.00	  612.07	-1973.24	  467.49
     23.3700	  638.00	  612.15	-1925.32	  467.02
     23.4700	  624.00	  612.30	-1939.47	  466.57
     23.5700	  631.00	  612.52	-1932.70	  466.11
     23.6700	  646.00	  612.84	-1918.02	  465.67
     23.7700	  665.00	  613.28	-1899.46	  465.23
     23.8700	  599.00	  613.89	-1966.07	  464.79
     23.9700	  580.00	  614.73	-1985.91	  464.36
     24.0700	  639.00	  615.93	-1928.10	  463.93
     24.1700	  645.00	  617.66	-1923.84	  463.51
     24.2700	  600.00	  620.22	-1971.40	  463.09
     24.3700	  612.00	  623.98	-1963.16	  462.68
     24.4700	  626.00	  629.29	-1954.47	  462.28
     24.5700	  626.00	  636.55	-1961.72	  461.88
     24.6700	  697.00	  645.63	-1899.81	  461.48
     24.7700	  715.00	  655.91	-1892.09	  461.09
     24.8700	  724.00	  665.85	-1893.03	  460.70
     24.9700	  723.00	  672.74	-1900.91	  460.32
     25.0700	  713.00	  673.27	-1911.45	  459.94
     25.1700	  688.00	  666.54	-1929.71	  459.57
     25.2700	  634.00	  656.10	-1973.28	  459.21
     25.3700	  724.00	  646.13	-1873.31	  458.84
     25.4700	  639.00	  638.70	-1950.87	  458.49
     25.5700	  620.00	  634.04	-1965.22	  458.13
     25.6700	  632.00	  631.69	-1950.86	  457.79
     25.7700	  630.00	  631.01	-1952.19	  457.44
     25.8700	  623.00	  631.50	-1959.67	  457.10
     25.9700	  644.00	  632.80	-1939.97	  456.77
     26.0700	  649.00	  634.73	-1936.91	  456.44
     26.1700	  642.00	  637.25	-1946.42	  456.11
     26.2700	  641.00	  640.33	-1950.51	  455.79
     26.3700	  673.00	  644.05	-1922.22	  455.47
     26.4700	  675.00	  648.47	-1924.64	  455.16
     26.5700	  635.00	  653.71	-1969.88	  454.85
     26.6700	  654.00	  659.92	-1957.10	  454.55
     26.7700	  642.00	  667.33	-1976.50	  454.25
     26.8700	  676.00	  676.19	-1951.37	  453.96
     26.9700	  702.00	  686.90	-1936.07	  453.67
     27.0700	  675.00	  699.96	-1976.13	  453.38
     27.1700	  701.00	  716.08	-1966.26	  453.10
     27.2700	  658.00	  736.34	-2029.51	  452.82
     27.3700	  701.00	  762.41	-2012.59	  452.55
     27.4700	  694.00	  797.51	-2054.69	  452.28
     27.5700	  787.00	  848.42	-2012.59	  452.01
     27.6700	  829.00	  929.83	-2052.00	  451.75
     27.7700	  868.00	 1071.20	-2154.37	  451.49
     27.8700	 1057.00	 1324.45	-2218.62	  451.24
     27.9700	 1306.00	 1767.00	-2412.18	  450.99
     28.0700	 1973.00	 2487.22	-2465.40	  450.74
     28.1700	 3176.00	 3538.07	-2313.25	  450.50
     28.2700	 5001.00	 4851.45	-1801.63	  450.26
     28.3700	 7038.00	 6134.09	-1047.26	  450.03
     28.4700	 7729.00	 6846.30	-1068.48	  449.80
     28.5700	 7019.00	 6490.12	-1422.29	  449.57
     28.6700	 5239.00	 5317.30	-2029.47	  449.35
     28.7700	 3976.00	 4178.30	-2153.47	  449.13
     28.8700	 3268.00	 3584.38	-2267.55	  448.91
     28.9700	 3624.00	 3556.30	-1883.47	  448.70
     29.0700	 4025.00	 3816.91	-1743.08	  448.49
     29.1700	 4376.00	 3965.13	-1540.31	  448.29
     29.2700	 3806.00	 3671.31	-1816.48	  448.09
     29.3700	 3005.00	 2974.27	-1920.44	  447.89
     29.4700	 2022.00	 2211.71	-2140.89	  447.70
     29.5700	 1497.00	 1613.11	-2067.28	  447.51
     29.6700	 1132.00	 1225.96	-2045.13	  447.32
     29.7700	  952.00	 1005.68	-2004.85	  447.14
     29.8700	  900.00	  886.71	-1937.89	  446.96
     29.9700	  813.00	  819.47	-1957.64	  446.78
     30.0700	  778.00	  776.91	-1950.08	  446.61
     30.1700	  760.00	  747.00	-1938.17	  446.44
     30.2700	  708.00	  724.80	-1967.97	  446.28
     30.3700	  685.00	  708.20	-1974.37	  446.11
     30.4700	  666.00	  696.39	-1981.56	  445.95
     30.5700	  726.00	  689.42	-1914.60	  445.80
     30.6700	  689.00	  688.07	-1950.24	  445.65
     30.7700	  689.00	  693.38	-1955.56	  445.50
     30.8700	  683.00	  705.76	-1973.93	  445.35
     30.9700	  725.00	  723.54	-1949.71	  445.21
     31.0700	  733.00	  741.83	-1960.00	  445.07
     31.1700	  750.00	  752.20	-1953.37	  444.93
     31.2700	  785.00	  745.57	-1911.74	  444.80
     31.3700	  776.00	  721.53	-1896.70	  444.66
     31.4700	  684.00	  691.05	-1958.23	  444.54
     31.5700	  667.00	  664.18	-1948.36	  444.41
     31.6700	  688.00	  644.53	-1907.70	  444.29
     31.7700	  711.00	  631.70	-1871.88	  444.17
     31.8700	  650.00	  623.78	-1924.96	  444.06
     31.9700	  635.00	  618.83	-1935.00	  443.94
     32.0700	  671.00	  615.51	-1895.68	  443.83
     32.1700	  637.00	  613.10	-1927.28	  443.73
     32.2700	  633.00	  611.28	-1929.45	  443.62
     32.3700	  608.00	  609.89	-1953.07	  443.52
     32.4700	  605.00	  608.88	-1955.05	  443.42
     32.5700	  667.00	  608.20	-1892.38	  443.32
     32.6700	  626.00	  607.86	-1933.04	  443.23
     32.7700	  627.00	  607.90	-1932.08	  443.14
     32.8700	  656.00	  608.30	-1903.47	  443.05
     32.9700	  677.00	  609.14	-1883.31	  442.97
     33.0700	  633.00	  610.52	-1928.69	  442.89
     33.1700	  591.00	  612.60	-1972.77	  442.81
     33.2700	  671.00	  615.67	-1895.84	  442.73
     33.3700	  680.00	  620.26	-1891.43	  442.65
     33.4700	  627.00	  627.44	-1951.62	  442.58
     33.5700	  654.00	  639.24	-1936.41	  442.51
     33.6700	  637.00	  659.15	-1973.32	  442.44
     33.7700	  664.00	  692.40	-1979.57	  442.38
     33.8700	  737.00	  745.09	-1959.26	  442.32
     33.9700	  862.00	  821.33	-1910.50	  442.26
     34.0700	 1010.00	  918.17	-1859.35	  442.20
     34.1700	 1123.00	 1020.65	-1848.82	  442.15
     34.2700	 1244.00	 1099.62	-1806.80	  442.09
     34.3700	 1231.00	 1118.34	-1838.52	  442.04
     34.4700	 1185.00	 1060.41	-1826.59	  442.00
     34.5700	  963.00	  955.00	-1943.17	  441.95
     34.6700	  817.00	  846.12	-1980.29	  441.91
     34.7700	  763.00	  758.24	-1946.42	  441.87
     34.8700	  688.00	  697.00	-1960.17	  441.83
     34.9700	  694.00	  658.48	-1915.65	  441.79
     35.0700	  677.00	  635.68	-1909.85	  441.76
     35.1700	  630.00	  622.23	-1943.40	  441.72
     35.2700	  687.00	  613.85	-1878.03	  441.69
     35.3700	  649.00	  608.17	-1910.34	  441.67
     35.4700	  615.00	  604.00	-1940.18	  441.64
     35.5700	  596.00	  600.80	-1955.97	  441.62
     35.6700	  608.00	  598.26	-1941.44	  441.59
     35.7700	  647.00	  596.22	-1900.40	  441.58
     35.8700	  595.00	  594.57	-1950.74	  441.56
     35.9700	  622.00	  593.22	-1922.40	  441.54
     36.0700	  591.00	  592.12	-1952.30	  441.53
     36.1700	  601.00	  591.24	-1941.41	  441.52
     36.2700	  587.00	  590.53	-1954.70	  441.51
     36.3700	  598.00	  589.98	-1943.15	  441.50
     36.4700	  577.00	  589.58	-1963.76	  441.49
     36.5700	  610.00	  589.33	-1930.50	  441.49
     36.6700	  570.00	  589.21	-1970.39	  441.49
     36.7700	  612.00	  589.26	-1928.43	  441.49
     36.8700	  604.00	  589.52	-1936.70	  441.49
     36.9700	  589.00	  590.14	-1952.31	  441.49
     37.0700	  555.00	  591.31	-1987.49	  441.50
     37.1700	  588.00	  592.35	-1955.52	  441.50
     37.2700	  563.00	  593.90	-1982.08	  441.51
     37.3700	  564.00	  596.25	-1983.42	  441.52
     37.4700	  600.00	  599.87	-1951.04	  441.53
     37.5700	  676.00	  605.50	-1880.67	  441.55
     37.6700	  644.00	  614.34	-1921.52	  441.56
     37.7700	  650.00	  627.81	-1928.98	  441.58
     37.8700	  637.00	  647.25	-1961.43	  441.60
     37.9700	  663.00	  673.17	-1961.34	  441.62
     38.0700	  697.00	  704.04	-1958.21	  441.64
     38.1700	  753.00	  733.66	-1931.83	  441.66
     38.2700	  699.00	  757.72	-2009.90	  441.69
     38.3700	  800.00	  764.48	-1915.65	  441.71
     38.4700	  686.00	  748.60	-2013.77	  441.74
     38.5700	  673.00	  716.70	-1994.88	  441.77
     38.6700	  663.00	  681.23	-1969.40	  441.80
     38.7700	  611.00	  650.50	-1990.68	  441.83
     38.8700	  639.00	  627.46	-1939.63	  441.87
     38.9700	  609.00	  611.85	-1954.02	  441.90
     39.0700	  632.00	  602.00	-1921.18	  441.94
     39.1700	  582.00	  596.01	-1965.18	  441.98
     39.2700	  622.00	  592.30	-1921.48	  442.02
     39.3700	  579.00	  589.89	-1962.07	  442.06
     39.4700	  579.00	  588.20	-1960.38	  442.10
     39.5700	  579.00	  585.93	-1958.10	  442.14
     39.6700	  604.00	  584.98	-1932.15	  442.18
     39.7700	  596.00	  584.23	-1939.41	  442.23
     39.8700	  622.00	  583.65	-1912.82	  442.28
     39.9700	  568.00	  583.18	-1966.35	  442.32
     40.0700	  622.00	  582.81	-1911.98	  442.37
     40.1700	  606.00	  582.52	-1927.70	  442.42
     40.2700	  553.00	  582.30	-1980.48	  442.47
     40.3700	  588.00	  582.14	-1945.32	  442.53
     40.4700	  543.00	  582.03	-1990.21	  442.58
     40.5700	  555.00	  581.97	-1978.14	  442.64
     40.6700	  565.00	  582.48	-1968.65	  442.69
     40.7700	  595.00	  582.50	-1938.68	  442.75
